File: input/CV_ECSA_#2_#8.DTA
EXPLAIN
TAG	CV
TITLE	LABEL	ECSA	Test Identifier
DATE	LABEL	17.7.2024	Date
TIME	LABEL	13:21:01	Time
NOTES	NOTES	1	Notes...

PSTAT	PSTAT	IFC1010-34090	Potentiostat
VINIT	POTEN	1.00000E-001	F	A Potential (V)
VLIMIT1	POTEN	2.00000E-001	F	A Potential (V)
VLIMIT2	POTEN	1.00000E-001	F	A Potential (V)
VFINAL	POTEN	1.00000E-001	F	A Potential (V)
SCANRATE	QUANT	8.00115E+001	A Real Number
STEPSIZE	QUANT	1.00000E+000	Step Size (mV)
CYCLES	IQUANT	3	Cycles (#)
IMODE	SELECTOR	1	I/E Range Mode
IRANGE	QUANT	3.00000E-001	Max Current (mA)
AREA	QUANT	1.00000E+000	Sample Area (cm^2)
EQDELAY	QUANT	0.00000E+000	Equil. Time (s)
IRCOMP	SELECTOR	0	IRComp
PFCOR	QUANT	5.00000E+001	PF Corr. (ohm)
SAMPLINGMODE	SELECTOR	2	Sampling Mode
EOC	QUANT	0.7205974	Open Circuit (V)
ELECTRODETYPE	SELECTOR	0	Electrode Type
STRIPPING	TOGGLE	F	Used for Stripping
SEQUENCER	TOGGLE	TRUE	Run as Sequence
PSTATMODEL	IQUANT	64	Pstat Model
PSTATSECTION	LABEL	IFC1010-34090	Pstat Section
PSTATSERIALNO	LABEL	34090	Pstat Serial Number
CTRLMODE	IQUANT	1	Control Mode
ELECTROMETER	IQUANT	0	RE=0 or CS=1
IESTAB	IQUANT	2	I/E Stability
CASPEED	IQUANT	4	Control Amp Speed
CONVENTION	IQUANT	1	Current Convention
ICHRANGE	IQUANT	2	Ich Range
ICHRANGEMODE	TOGGLE	F	Ich Auto Range
ICHOFFSETENABLE	TOGGLE	F	Ich Offset Enable
ICHOFFSET	QUANT	0	Ich Offset (V)
ICHFILTER	IQUANT	3	Ich Filter
VCHRANGE	IQUANT	1	Vch Range
VCHRANGEMODE	TOGGLE	F	Vch Auto Range
VCHOFFSETENABLE	TOGGLE	F	Vch Offset Enable
VCHOFFSET	QUANT	0	Vch Offset (V)
VCHFILTER	IQUANT	3	Vch Filter
IERANGELOWERLIMIT	IQUANT	4	I/E Range Lower Limit
IERANGEMODE	TOGGLE	F	I/E AutoRange
IERANGE	IQUANT	9	I/E Range
ACHSELECT	IQUANT	0	Ach Select
ACHRANGE	IQUANT	2	Ach Range
ACHOFFSETENABLE	TOGGLE	F	Ach Offset Enable
ACHOFFSET	QUANT	0	Ach Offset (V)
ACHFILTER	IQUANT	1	Ach Filter
SENSECABLEID	IQUANT	13	Sense Cable ID
PWRCABLEID	IQUANT	13	Power Cable ID
DCCALDATE	LABEL	1/30/2024	DC Calibration Date
ACCALDATE	LABEL	1/8/2024	AC Calibration Date
FRAMEWORKVERSION	LABEL	7.10.3	Framework Version
INSTRUMENTVERSION	LABEL	4.91	Instrument Version
COMMVERSION	LABEL	3.10	Communications Version
CPUPLDVERSION	LABEL	2.22	CPU PLD Version
CTRLPLDVERSION	LABEL	0.00	CTRL PLD Version
PSTATPLDVERSION	LABEL	0.00	PSTAT PLD Version
CURVE1	TABLE
	Pt	T	Vf	Im	Vu	Sig	Ach	IERange	Over	Temp
	#	s	V vs. Ref.	A	V	V	V	#	bits	deg C
	0	0.0125	1.00295E-001	-2.08210E-005	0.00000E+000	9.99950E-002	0.00000E+000	9	...........	1467.43
	2	0.0375	1.02277E-001	-1.69849E-005	0.00000E+000	1.01995E-001	0.00000E+000	9	...........	1467.43
	4	0.0625	1.04276E-001	-1.66982E-005	0.00000E+000	1.03995E-001	0.00000E+000	9	...........	1467.43
	6	0.0875	1.06290E-001	-1.64788E-005	0.00000E+000	1.06007E-001	0.00000E+000	9	...........	1467.43
	8	0.1125	1.08292E-001	-1.62813E-005	0.00000E+000	1.08007E-001	0.00000E+000	9	...........	1467.43
	10	0.1375	1.10291E-001	-1.60417E-005	0.00000E+000	1.10006E-001	0.00000E+000	9	...........	1467.43
	12	0.1625	1.12291E-001	-1.59427E-005	0.00000E+000	1.12006E-001	0.00000E+000	9	...........	1467.43
	14	0.1875	1.14292E-001	-1.58480E-005	0.00000E+000	1.14006E-001	0.00000E+000	9	...........	1467.43
	16	0.2125	1.16294E-001	-1.56484E-005	0.00000E+000	1.16006E-001	0.00000E+000	9	...........	1467.43
	18	0.2375	1.18295E-001	-1.54384E-005	0.00000E+000	1.18006E-001	0.00000E+000	9	...........	1467.43
	20	0.2625	1.20297E-001	-1.53631E-005	0.00000E+000	1.20005E-001	0.00000E+000	9	...........	1467.43
	22	0.2875	1.22298E-001	-1.52821E-005	0.00000E+000	1.22005E-001	0.00000E+000	9	...........	1467.43
	24	0.3125	1.24300E-001	-1.50907E-005	0.00000E+000	1.24005E-001	0.00000E+000	9	...........	1467.43
	26	0.3375	1.26300E-001	-1.48945E-005	0.00000E+000	1.26005E-001	0.00000E+000	9	...........	1467.43
	28	0.3625	1.28302E-001	-1.48413E-005	0.00000E+000	1.28005E-001	0.00000E+000	9	...........	1467.43
	30	0.3875	1.30300E-001	-1.47850E-005	0.00000E+000	1.30004E-001	0.00000E+000	9	...........	1467.43
	32	0.4125	1.32304E-001	-1.45765E-005	0.00000E+000	1.32004E-001	0.00000E+000	9	...........	1467.43
	34	0.4375	1.34303E-001	-1.43875E-005	0.00000E+000	1.34004E-001	0.00000E+000	9	...........	1467.43
	36	0.4625	1.36303E-001	-1.43524E-005	0.00000E+000	1.36004E-001	0.00000E+000	9	...........	1467.43
	38	0.4875	1.38305E-001	-1.42668E-005	0.00000E+000	1.38004E-001	0.00000E+000	9	...........	1467.43
	40	0.5125	1.40304E-001	-1.40810E-005	0.00000E+000	1.40003E-001	0.00000E+000	9	...........	1467.43
	42	0.5375	1.42304E-001	-1.39095E-005	0.00000E+000	1.42003E-001	0.00000E+000	9	...........	1467.43
	44	0.5625	1.44303E-001	-1.38693E-005	0.00000E+000	1.44003E-001	0.00000E+000	9	...........	1467.43
	46	0.5875	1.46307E-001	-1.37945E-005	0.00000E+000	1.46003E-001	0.00000E+000	9	...........	1467.43
	48	0.6125	1.48305E-001	-1.36078E-005	0.00000E+000	1.48003E-001	0.00000E+000	9	...........	1467.43
	50	0.6375	1.50303E-001	-1.34496E-005	0.00000E+000	1.50002E-001	0.00000E+000	9	...........	1467.43
	52	0.6625	1.52302E-001	-1.34032E-005	0.00000E+000	1.52002E-001	0.00000E+000	9	...........	1467.43
	54	0.6875	1.54305E-001	-1.33266E-005	0.00000E+000	1.54002E-001	0.00000E+000	9	...........	1467.43
	56	0.7125	1.56318E-001	-1.31070E-005	0.00000E+000	1.56014E-001	0.00000E+000	9	...........	1467.43
	58	0.7375	1.58317E-001	-1.29717E-005	0.00000E+000	1.58014E-001	0.00000E+000	9	...........	1467.43
	60	0.7625	1.60320E-001	-1.29354E-005	0.00000E+000	1.60014E-001	0.00000E+000	9	...........	1467.43
	62	0.7875	1.62319E-001	-1.28739E-005	0.00000E+000	1.62014E-001	0.00000E+000	9	...........	1467.43
	64	0.8125	1.64319E-001	-1.26874E-005	0.00000E+000	1.64013E-001	0.00000E+000	9	...........	1467.43
	66	0.8375	1.66321E-001	-1.25192E-005	0.00000E+000	1.66013E-001	0.00000E+000	9	...........	1467.43
	68	0.8625	1.68322E-001	-1.24809E-005	0.00000E+000	1.68013E-001	0.00000E+000	9	...........	1467.43
	70	0.8875	1.70325E-001	-1.24072E-005	0.00000E+000	1.70013E-001	0.00000E+000	9	...........	1467.43
	72	0.9125	1.72325E-001	-1.22192E-005	0.00000E+000	1.72013E-001	0.00000E+000	9	...........	1467.34
	74	0.9375	1.74327E-001	-1.20647E-005	0.00000E+000	1.74012E-001	0.00000E+000	9	...........	1467.34
	76	0.9625	1.76326E-001	-1.20168E-005	0.00000E+000	1.76012E-001	0.00000E+000	9	...........	1467.34
	78	0.9875	1.78326E-001	-1.19409E-005	0.00000E+000	1.78012E-001	0.00000E+000	9	...........	1467.34
	80	1.0125	1.80328E-001	-1.17438E-005	0.00000E+000	1.80012E-001	0.00000E+000	9	...........	1467.34
	82	1.0375	1.82329E-001	-1.15808E-005	0.00000E+000	1.82012E-001	0.00000E+000	9	...........	1467.34
	84	1.0625	1.84329E-001	-1.15364E-005	0.00000E+000	1.84011E-001	0.00000E+000	9	...........	1467.34
	86	1.0875	1.86329E-001	-1.14672E-005	0.00000E+000	1.86011E-001	0.00000E+000	9	...........	1467.34
	88	1.1125	1.88331E-001	-1.12424E-005	0.00000E+000	1.88011E-001	0.00000E+000	9	...........	1467.34
	90	1.1375	1.90330E-001	-1.10703E-005	0.00000E+000	1.90011E-001	0.00000E+000	9	...........	1467.34
	92	1.1625	1.92331E-001	-1.10274E-005	0.00000E+000	1.92011E-001	0.00000E+000	9	...........	1467.34
	94	1.1875	1.94332E-001	-1.09288E-005	0.00000E+000	1.94010E-001	0.00000E+000	9	...........	1467.34
	96	1.2125	1.96333E-001	-1.06970E-005	0.00000E+000	1.96010E-001	0.00000E+000	9	...........	1467.34
	98	1.2375	1.98335E-001	-1.05259E-005	0.00000E+000	1.98010E-001	0.00000E+000	9	...........	1467.34
	100	1.2625	2.00337E-001	-1.04702E-005	0.00000E+000	2.00010E-001	0.00000E+000	9	...........	1467.34
	102	1.2875	1.98370E-001	-1.73334E-005	0.00000E+000	1.98010E-001	0.00000E+000	9	...........	1467.34
	104	1.3125	1.96371E-001	-1.78191E-005	0.00000E+000	1.96010E-001	0.00000E+000	9	...........	1467.34
	106	1.3375	1.94366E-001	-1.81520E-005	0.00000E+000	1.94010E-001	0.00000E+000	9	...........	1467.34
	108	1.3625	1.92370E-001	-1.85160E-005	0.00000E+000	1.92011E-001	0.00000E+000	9	...........	1467.34
	110	1.3875	1.90366E-001	-1.87854E-005	0.00000E+000	1.90011E-001	0.00000E+000	9	...........	1467.34
	112	1.4125	1.88366E-001	-1.88964E-005	0.00000E+000	1.88011E-001	0.00000E+000	9	...........	1467.34
	114	1.4375	1.86366E-001	-1.90704E-005	0.00000E+000	1.86011E-001	0.00000E+000	9	...........	1467.34
	116	1.4625	1.84365E-001	-1.93152E-005	0.00000E+000	1.84011E-001	0.00000E+000	9	...........	1467.34
	118	1.4875	1.82363E-001	-1.94933E-005	0.00000E+000	1.82012E-001	0.00000E+000	9	...........	1467.34
	120	1.5125	1.80364E-001	-1.95444E-005	0.00000E+000	1.80012E-001	0.00000E+000	9	...........	1467.34
	122	1.5375	1.78363E-001	-1.96787E-005	0.00000E+000	1.78012E-001	0.00000E+000	9	...........	1467.34
	124	1.5625	1.76359E-001	-1.98910E-005	0.00000E+000	1.76012E-001	0.00000E+000	9	...........	1467.34
	126	1.5875	1.74360E-001	-2.00191E-005	0.00000E+000	1.74012E-001	0.00000E+000	9	...........	1467.34
	128	1.6125	1.72358E-001	-2.00534E-005	0.00000E+000	1.72013E-001	0.00000E+000	9	...........	1467.34
	130	1.6375	1.70361E-001	-2.01701E-005	0.00000E+000	1.70013E-001	0.00000E+000	9	...........	1467.34
	132	1.6625	1.68357E-001	-2.03497E-005	0.00000E+000	1.68013E-001	0.00000E+000	9	...........	1467.34
	134	1.6875	1.66356E-001	-2.04650E-005	0.00000E+000	1.66013E-001	0.00000E+000	9	...........	1467.34
	136	1.7125	1.64357E-001	-2.04922E-005	0.00000E+000	1.64013E-001	0.00000E+000	9	...........	1467.34
	138	1.7375	1.62355E-001	-2.06050E-005	0.00000E+000	1.62014E-001	0.00000E+000	9	...........	1467.34
	140	1.7625	1.60356E-001	-2.07825E-005	0.00000E+000	1.60014E-001	0.00000E+000	9	...........	1467.34
	142	1.7875	1.58352E-001	-2.08842E-005	0.00000E+000	1.58014E-001	0.00000E+000	9	...........	1467.34
	144	1.8125	1.56353E-001	-2.09034E-005	0.00000E+000	1.56014E-001	0.00000E+000	9	...........	1467.34
	146	1.8375	1.54340E-001	-2.10109E-005	0.00000E+000	1.54002E-001	0.00000E+000	9	...........	1467.34
	148	1.8625	1.52338E-001	-2.11917E-005	0.00000E+000	1.52002E-001	0.00000E+000	9	...........	1467.34
	150	1.8875	1.50339E-001	-2.12923E-005	0.00000E+000	1.50002E-001	0.00000E+000	9	...........	1467.34
	152	1.9125	1.48341E-001	-2.13001E-005	0.00000E+000	1.48003E-001	0.00000E+000	9	...........	1467.43
	154	1.9375	1.46342E-001	-2.14285E-005	0.00000E+000	1.46003E-001	0.00000E+000	9	...........	1467.43
	156	1.9625	1.44339E-001	-2.16059E-005	0.00000E+000	1.44003E-001	0.00000E+000	9	...........	1467.43
	158	1.9875	1.42342E-001	-2.16955E-005	0.00000E+000	1.42003E-001	0.00000E+000	9	...........	1467.43
	160	2.0125	1.40341E-001	-2.17176E-005	0.00000E+000	1.40003E-001	0.00000E+000	9	...........	1467.43
	162	2.0375	1.38343E-001	-2.18370E-005	0.00000E+000	1.38004E-001	0.00000E+000	9	...........	1467.43
	164	2.0625	1.36339E-001	-2.20164E-005	0.00000E+000	1.36004E-001	0.00000E+000	9	...........	1467.43
	166	2.0875	1.34340E-001	-2.21181E-005	0.00000E+000	1.34004E-001	0.00000E+000	9	...........	1467.43
	168	2.1125	1.32340E-001	-2.21457E-005	0.00000E+000	1.32004E-001	0.00000E+000	9	...........	1467.43
	170	2.1375	1.30338E-001	-2.22659E-005	0.00000E+000	1.30004E-001	0.00000E+000	9	...........	1467.43
	172	2.1625	1.28338E-001	-2.24469E-005	0.00000E+000	1.28005E-001	0.00000E+000	9	...........	1467.43
	174	2.1875	1.26336E-001	-2.25527E-005	0.00000E+000	1.26005E-001	0.00000E+000	9	...........	1467.43
	176	2.2125	1.24334E-001	-2.25696E-005	0.00000E+000	1.24005E-001	0.00000E+000	9	...........	1467.43
	178	2.2375	1.22331E-001	-2.27020E-005	0.00000E+000	1.22005E-001	0.00000E+000	9	...........	1467.43
	180	2.2625	1.20330E-001	-2.29031E-005	0.00000E+000	1.20005E-001	0.00000E+000	9	...........	1467.43
	182	2.2875	1.18330E-001	-2.30098E-005	0.00000E+000	1.18006E-001	0.00000E+000	9	...........	1467.43
	184	2.3125	1.16331E-001	-2.30306E-005	0.00000E+000	1.16006E-001	0.00000E+000	9	...........	1467.43
	186	2.3375	1.14330E-001	-2.31757E-005	0.00000E+000	1.14006E-001	0.00000E+000	9	...........	1467.43
	188	2.3625	1.12327E-001	-2.33812E-005	0.00000E+000	1.12006E-001	0.00000E+000	9	...........	1467.43
	190	2.3875	1.10330E-001	-2.34846E-005	0.00000E+000	1.10006E-001	0.00000E+000	9	...........	1467.43
	192	2.4125	1.08328E-001	-2.35239E-005	0.00000E+000	1.08007E-001	0.00000E+000	9	...........	1467.43
	194	2.4375	1.06327E-001	-2.36872E-005	0.00000E+000	1.06007E-001	0.00000E+000	9	...........	1467.43
	196	2.4625	1.04313E-001	-2.39042E-005	0.00000E+000	1.03995E-001	0.00000E+000	9	...........	1467.43
	198	2.4875	1.02314E-001	-2.40262E-005	0.00000E+000	1.01995E-001	0.00000E+000	9	...........	1467.43
	200	2.5125	1.00313E-001	-2.40665E-005	0.00000E+000	9.99950E-002	0.00000E+000	9	...........	1467.43
CURVE2	TABLE
	Pt	T	Vf	Im	Vu	Sig	Ach	IERange	Over	Temp
	#	s	V vs. Ref.	A	V	V	V	#	bits	deg C
	201	2.525	1.01278E-001	-1.78844E-005	0.00000E+000	1.00995E-001	0.00000E+000	9	...........	1467.43
	203	2.55	1.03278E-001	-1.70182E-005	0.00000E+000	1.02995E-001	0.00000E+000	9	...........	1467.43
	205	2.575	1.05278E-001	-1.66811E-005	0.00000E+000	1.04994E-001	0.00000E+000	9	...........	1467.43
	207	2.6	1.07289E-001	-1.65217E-005	0.00000E+000	1.07007E-001	0.00000E+000	9	...........	1467.43
	209	2.625	1.09294E-001	-1.63637E-005	0.00000E+000	1.09007E-001	0.00000E+000	9	...........	1467.43
	211	2.65	1.11291E-001	-1.61020E-005	0.00000E+000	1.11006E-001	0.00000E+000	9	...........	1467.43
	213	2.675	1.13295E-001	-1.59062E-005	0.00000E+000	1.13006E-001	0.00000E+000	9	...........	1467.43
	215	2.7	1.15295E-001	-1.58313E-005	0.00000E+000	1.15006E-001	0.00000E+000	9	...........	1467.43
	217	2.725	1.17293E-001	-1.57105E-005	0.00000E+000	1.17006E-001	0.00000E+000	9	...........	1467.43
	219	2.75	1.19296E-001	-1.54819E-005	0.00000E+000	1.19006E-001	0.00000E+000	9	...........	1467.43
	221	2.775	1.21298E-001	-1.53179E-005	0.00000E+000	1.21005E-001	0.00000E+000	9	...........	1467.43
	223	2.8	1.23298E-001	-1.52687E-005	0.00000E+000	1.23005E-001	0.00000E+000	9	...........	1467.43
	225	2.825	1.25297E-001	-1.51487E-005	0.00000E+000	1.25005E-001	0.00000E+000	9	...........	1467.43
	227	2.85	1.27299E-001	-1.49296E-005	0.00000E+000	1.27005E-001	0.00000E+000	9	...........	1467.43
	229	2.875	1.29301E-001	-1.47812E-005	0.00000E+000	1.29005E-001	0.00000E+000	9	...........	1467.43
	231	2.9	1.31301E-001	-1.47381E-005	0.00000E+000	1.31004E-001	0.00000E+000	9	...........	1467.43
	233	2.925	1.33302E-001	-1.46258E-005	0.00000E+000	1.33004E-001	0.00000E+000	9	...........	1467.43
	235	2.95	1.35302E-001	-1.44101E-005	0.00000E+000	1.35004E-001	0.00000E+000	9	...........	1467.43
	237	2.975	1.37303E-001	-1.42864E-005	0.00000E+000	1.37004E-001	0.00000E+000	9	...........	1467.43
	239	3	1.39304E-001	-1.42434E-005	0.00000E+000	1.39004E-001	0.00000E+000	9	...........	1467.43
	241	3.025	1.41306E-001	-1.41245E-005	0.00000E+000	1.41003E-001	0.00000E+000	9	...........	1467.43
	243	3.05	1.43303E-001	-1.39261E-005	0.00000E+000	1.43003E-001	0.00000E+000	9	...........	1467.43
	245	3.075	1.45305E-001	-1.38050E-005	0.00000E+000	1.45003E-001	0.00000E+000	9	...........	1467.43
	247	3.1	1.47306E-001	-1.37649E-005	0.00000E+000	1.47003E-001	0.00000E+000	9	...........	1467.43
	249	3.125	1.49306E-001	-1.36577E-005	0.00000E+000	1.49003E-001	0.00000E+000	9	...........	1467.43
	251	3.15	1.51304E-001	-1.34433E-005	0.00000E+000	1.51002E-001	0.00000E+000	9	...........	1467.43
	253	3.175	1.53302E-001	-1.33316E-005	0.00000E+000	1.53002E-001	0.00000E+000	9	...........	1467.43
	255	3.2	1.55305E-001	-1.33004E-005	0.00000E+000	1.55002E-001	0.00000E+000	9	...........	1467.43
	257	3.225	1.57318E-001	-1.31735E-005	0.00000E+000	1.57014E-001	0.00000E+000	9	...........	1467.43
	259	3.25	1.59321E-001	-1.29751E-005	0.00000E+000	1.59014E-001	0.00000E+000	9	...........	1467.43
	261	3.275	1.61321E-001	-1.28756E-005	0.00000E+000	1.61014E-001	0.00000E+000	9	...........	1467.43
	263	3.3	1.63320E-001	-1.28379E-005	0.00000E+000	1.63014E-001	0.00000E+000	9	...........	1467.43
	265	3.325	1.65322E-001	-1.27105E-005	0.00000E+000	1.65013E-001	0.00000E+000	9	...........	1467.43
	267	3.35	1.67320E-001	-1.25054E-005	0.00000E+000	1.67013E-001	0.00000E+000	9	...........	1467.43
	269	3.375	1.69322E-001	-1.24160E-005	0.00000E+000	1.69013E-001	0.00000E+000	9	...........	1467.43
	271	3.4	1.71323E-001	-1.23702E-005	0.00000E+000	1.71013E-001	0.00000E+000	9	...........	1467.43
	273	3.425	1.73325E-001	-1.22452E-005	0.00000E+000	1.73013E-001	0.00000E+000	9	...........	1467.43
	275	3.45	1.75323E-001	-1.20420E-005	0.00000E+000	1.75012E-001	0.00000E+000	9	...........	1467.43
	277	3.475	1.77327E-001	-1.19401E-005	0.00000E+000	1.77012E-001	0.00000E+000	9	...........	1467.43
	279	3.5	1.79329E-001	-1.18900E-005	0.00000E+000	1.79012E-001	0.00000E+000	9	...........	1467.43
	281	3.525	1.81327E-001	-1.17607E-005	0.00000E+000	1.81012E-001	0.00000E+000	9	...........	1467.43
	283	3.55	1.83328E-001	-1.15584E-005	0.00000E+000	1.83012E-001	0.00000E+000	9	...........	1467.43
	285	3.575	1.85327E-001	-1.14492E-005	0.00000E+000	1.85011E-001	0.00000E+000	9	...........	1467.43
	287	3.6	1.87331E-001	-1.14003E-005	0.00000E+000	1.87011E-001	0.00000E+000	9	...........	1467.43
	289	3.625	1.89328E-001	-1.12663E-005	0.00000E+000	1.89011E-001	0.00000E+000	9	...........	1467.43
	291	3.65	1.91332E-001	-1.10396E-005	0.00000E+000	1.91011E-001	0.00000E+000	9	...........	1467.43
	293	3.675	1.93333E-001	-1.09261E-005	0.00000E+000	1.93011E-001	0.00000E+000	9	...........	1467.43
	295	3.7	1.95331E-001	-1.08687E-005	0.00000E+000	1.95010E-001	0.00000E+000	9	...........	1467.43
	297	3.725	1.97333E-001	-1.07075E-005	0.00000E+000	1.97010E-001	0.00000E+000	9	...........	1467.43
[...]
	431	5.4	1.31301E-001	-1.47412E-005	0.00000E+000	1.31004E-001	0.00000E+000	9	...........	1467.43
	433	5.425	1.33302E-001	-1.45389E-005	0.00000E+000	1.33004E-001	0.00000E+000	9	...........	1467.43
	435	5.45	1.35303E-001	-1.43929E-005	0.00000E+000	1.35004E-001	0.00000E+000	9	...........	1467.43
	437	5.475	1.37302E-001	-1.43598E-005	0.00000E+000	1.37004E-001	0.00000E+000	9	...........	1467.43
	439	5.5	1.39304E-001	-1.42524E-005	0.00000E+000	1.39004E-001	0.00000E+000	9	...........	1467.43
	441	5.525	1.41305E-001	-1.40454E-005	0.00000E+000	1.41003E-001	0.00000E+000	9	...........	1467.43
	443	5.55	1.43302E-001	-1.39125E-005	0.00000E+000	1.43003E-001	0.00000E+000	9	...........	1467.43
	445	5.575	1.45304E-001	-1.38662E-005	0.00000E+000	1.45003E-001	0.00000E+000	9	...........	1467.43
	447	5.6	1.47306E-001	-1.37664E-005	0.00000E+000	1.47003E-001	0.00000E+000	9	...........	1467.43
	449	5.625	1.49307E-001	-1.35668E-005	0.00000E+000	1.49003E-001	0.00000E+000	9	...........	1467.43
	451	5.65	1.51305E-001	-1.34295E-005	0.00000E+000	1.51002E-001	0.00000E+000	9	...........	1467.43
	453	5.675	1.53302E-001	-1.33971E-005	0.00000E+000	1.53002E-001	0.00000E+000	9	...........	1467.43
	455	5.7	1.55304E-001	-1.33001E-005	0.00000E+000	1.55002E-001	0.00000E+000	9	...........	1467.43
	457	5.725	1.57316E-001	-1.30961E-005	0.00000E+000	1.57014E-001	0.00000E+000	9	...........	1467.43
	459	5.75	1.59320E-001	-1.29770E-005	0.00000E+000	1.59014E-001	0.00000E+000	9	...........	1467.43
	461	5.775	1.61322E-001	-1.29354E-005	0.00000E+000	1.61014E-001	0.00000E+000	9	...........	1467.43
	463	5.8	1.63320E-001	-1.28336E-005	0.00000E+000	1.63014E-001	0.00000E+000	9	...........	1467.43
	465	5.825	1.65322E-001	-1.26385E-005	0.00000E+000	1.65013E-001	0.00000E+000	9	...........	1467.43
	467	5.85	1.67320E-001	-1.25119E-005	0.00000E+000	1.67013E-001	0.00000E+000	9	...........	1467.43
	469	5.875	1.69321E-001	-1.24768E-005	0.00000E+000	1.69013E-001	0.00000E+000	9	...........	1467.43
	471	5.9	1.71323E-001	-1.23667E-005	0.00000E+000	1.71013E-001	0.00000E+000	9	...........	1467.35
	473	5.925	1.73326E-001	-1.21599E-005	0.00000E+000	1.73013E-001	0.00000E+000	9	...........	1467.34
	475	5.95	1.75324E-001	-1.20561E-005	0.00000E+000	1.75012E-001	0.00000E+000	9	...........	1467.34
	477	5.975	1.77328E-001	-1.20064E-005	0.00000E+000	1.77012E-001	0.00000E+000	9	...........	1467.34
	479	6	1.79331E-001	-1.18842E-005	0.00000E+000	1.79012E-001	0.00000E+000	9	...........	1467.34
	481	6.025	1.81328E-001	-1.16810E-005	0.00000E+000	1.81012E-001	0.00000E+000	9	...........	1467.34
	483	6.05	1.83330E-001	-1.15640E-005	0.00000E+000	1.83012E-001	0.00000E+000	9	...........	1467.34
	485	6.075	1.85328E-001	-1.15224E-005	0.00000E+000	1.85011E-001	0.00000E+000	9	...........	1467.34
	487	6.1	1.87331E-001	-1.13904E-005	0.00000E+000	1.87011E-001	0.00000E+000	9	...........	1467.34
	489	6.125	1.89327E-001	-1.11625E-005	0.00000E+000	1.89011E-001	0.00000E+000	9	...........	1467.34
	491	6.15	1.91332E-001	-1.10435E-005	0.00000E+000	1.91011E-001	0.00000E+000	9	...........	1467.34
	493	6.175	1.93335E-001	-1.09916E-005	0.00000E+000	1.93011E-001	0.00000E+000	9	...........	1467.34
	495	6.2	1.95330E-001	-1.08463E-005	0.00000E+000	1.95010E-001	0.00000E+000	9	...........	1467.34
	497	6.225	1.97333E-001	-1.06235E-005	0.00000E+000	1.97010E-001	0.00000E+000	9	...........	1467.34
	499	6.25	1.99335E-001	-1.04945E-005	0.00000E+000	1.99010E-001	0.00000E+000	9	...........	1467.34
	501	6.275	1.99371E-001	-1.66695E-005	0.00000E+000	1.99010E-001	0.00000E+000	9	...........	1467.34
	503	6.3	1.97372E-001	-1.76238E-005	0.00000E+000	1.97010E-001	0.00000E+000	9	...........	1467.34
	505	6.325	1.95369E-001	-1.79707E-005	0.00000E+000	1.95010E-001	0.00000E+000	9	...........	1467.34
	507	6.35	1.93372E-001	-1.82865E-005	0.00000E+000	1.93011E-001	0.00000E+000	9	...........	1467.34
	509	6.375	1.91369E-001	-1.86295E-005	0.00000E+000	1.91011E-001	0.00000E+000	9	...........	1467.34
	511	6.4	1.89366E-001	-1.88397E-005	0.00000E+000	1.89011E-001	0.00000E+000	9	...........	1467.34
	513	6.425	1.87368E-001	-1.89413E-005	0.00000E+000	1.87011E-001	0.00000E+000	9	...........	1467.34
	515	6.45	1.85365E-001	-1.91433E-005	0.00000E+000	1.85011E-001	0.00000E+000	9	...........	1467.34
	517	6.475	1.83366E-001	-1.93761E-005	0.00000E+000	1.83012E-001	0.00000E+000	9	...........	1467.34
	519	6.5	1.81365E-001	-1.95125E-005	0.00000E+000	1.81012E-001	0.00000E+000	9	...........	1467.34
	521	6.525	1.79366E-001	-1.95620E-005	0.00000E+000	1.79012E-001	0.00000E+000	9	...........	1467.34
	523	6.55	1.77364E-001	-1.97227E-005	0.00000E+000	1.77012E-001	0.00000E+000	9	...........	1467.34
	525	6.575	1.75359E-001	-1.99221E-005	0.00000E+000	1.75012E-001	0.00000E+000	9	...........	1467.34
	527	6.6	1.73363E-001	-2.00202E-005	0.00000E+000	1.73013E-001	0.00000E+000	9	...........	1467.34
	529	6.625	1.71359E-001	-2.00548E-005	0.00000E+000	1.71013E-001	0.00000E+000	9	...........	1467.34
	531	6.65	1.69359E-001	-2.02030E-005	0.00000E+000	1.69013E-001	0.00000E+000	9	...........	1467.34
	533	6.675	1.67356E-001	-2.03748E-005	0.00000E+000	1.67013E-001	0.00000E+000	9	...........	1467.34
	535	6.7	1.65356E-001	-2.04608E-005	0.00000E+000	1.65013E-001	0.00000E+000	9	...........	1467.34
	537	6.725	1.63355E-001	-2.04845E-005	0.00000E+000	1.63014E-001	0.00000E+000	9	...........	1467.34
	539	6.75	1.61354E-001	-2.06213E-005	0.00000E+000	1.61014E-001	0.00000E+000	9	...........	1467.34
	541	6.775	1.59356E-001	-2.07978E-005	0.00000E+000	1.59014E-001	0.00000E+000	9	...........	1467.34
	543	6.8	1.57352E-001	-2.08767E-005	0.00000E+000	1.57014E-001	0.00000E+000	9	...........	1467.34
	545	6.825	1.55341E-001	-2.09198E-005	0.00000E+000	1.55002E-001	0.00000E+000	9	...........	1467.34
	547	6.85	1.53338E-001	-2.10437E-005	0.00000E+000	1.53002E-001	0.00000E+000	9	...........	1467.34
	549	6.875	1.51339E-001	-2.12099E-005	0.00000E+000	1.51002E-001	0.00000E+000	9	...........	1467.34
	551	6.9	1.49342E-001	-2.12666E-005	0.00000E+000	1.49003E-001	0.00000E+000	9	...........	1467.43
	553	6.925	1.47342E-001	-2.13037E-005	0.00000E+000	1.47003E-001	0.00000E+000	9	...........	1467.43
	555	6.95	1.45342E-001	-2.14642E-005	0.00000E+000	1.45003E-001	0.00000E+000	9	...........	1467.43
	557	6.975	1.43339E-001	-2.16164E-005	0.00000E+000	1.43003E-001	0.00000E+000	9	...........	1467.43
	559	7	1.41342E-001	-2.16737E-005	0.00000E+000	1.41003E-001	0.00000E+000	9	...........	1467.43
	561	7.025	1.39339E-001	-2.17108E-005	0.00000E+000	1.39004E-001	0.00000E+000	9	...........	1467.43
	563	7.05	1.37337E-001	-2.18732E-005	0.00000E+000	1.37004E-001	0.00000E+000	9	...........	1467.43
	565	7.075	1.35338E-001	-2.20319E-005	0.00000E+000	1.35004E-001	0.00000E+000	9	...........	1467.43
	567	7.1	1.33338E-001	-2.21070E-005	0.00000E+000	1.33004E-001	0.00000E+000	9	...........	1467.43
	569	7.125	1.31337E-001	-2.21392E-005	0.00000E+000	1.31004E-001	0.00000E+000	9	...........	1467.43
	571	7.15	1.29338E-001	-2.22905E-005	0.00000E+000	1.29005E-001	0.00000E+000	9	...........	1467.43
	573	7.175	1.27334E-001	-2.24683E-005	0.00000E+000	1.27005E-001	0.00000E+000	9	...........	1467.43
	575	7.2	1.25335E-001	-2.25375E-005	0.00000E+000	1.25005E-001	0.00000E+000	9	...........	1467.43
	577	7.225	1.23336E-001	-2.25747E-005	0.00000E+000	1.23005E-001	0.00000E+000	9	...........	1467.43
	579	7.25	1.21335E-001	-2.27551E-005	0.00000E+000	1.21005E-001	0.00000E+000	9	...........	1467.43
	581	7.275	1.19334E-001	-2.29219E-005	0.00000E+000	1.19006E-001	0.00000E+000	9	...........	1467.43
	583	7.3	1.17330E-001	-2.29873E-005	0.00000E+000	1.17006E-001	0.00000E+000	9	...........	1467.43
	585	7.325	1.15330E-001	-2.30419E-005	0.00000E+000	1.15006E-001	0.00000E+000	9	...........	1467.43
	587	7.35	1.13330E-001	-2.32384E-005	0.00000E+000	1.13006E-001	0.00000E+000	9	...........	1467.43
	589	7.375	1.11325E-001	-2.34174E-005	0.00000E+000	1.11006E-001	0.00000E+000	9	...........	1467.43
	591	7.4	1.09327E-001	-2.34758E-005	0.00000E+000	1.09007E-001	0.00000E+000	9	...........	1467.43
	593	7.425	1.07324E-001	-2.35438E-005	0.00000E+000	1.07007E-001	0.00000E+000	9	...........	1467.43
	595	7.45	1.05313E-001	-2.37903E-005	0.00000E+000	1.04994E-001	0.00000E+000	9	...........	1467.43
	597	7.475	1.03314E-001	-2.39303E-005	0.00000E+000	1.02995E-001	0.00000E+000	9	...........	1467.43
	599	7.5	1.01313E-001	-2.40030E-005	0.00000E+000	1.00995E-001	0.00000E+000	9	...........	1467.43
	600	7.5125	1.00312E-001	-2.41240E-005	0.00000E+000	9.99950E-002	0.00000E+000	9	...........	1467.43
CURVE4	TABLE
	Pt	T	Vf	Im	Vu	Sig	Ach	IERange	Over	Temp
	#	s	V vs. Ref.	A	V	V	V	#	bits	deg C
	601	7.525	1.00296E-001	-2.08964E-005	0.00000E+000	9.99950E-002	0.00000E+000	9	...........	1467.43