File: input/CV_ECSA_#1_#8.DTA
EXPLAIN
TAG	CV
TITLE	LABEL	ECSA	Test Identifier
DATE	LABEL	17.7.2024	Date
TIME	LABEL	10:19:20	Time
NOTES	NOTES	1	Notes...

PSTAT	PSTAT	IFC1010-34090	Potentiostat
VINIT	POTEN	1.00000E-001	F	A Potential (V)
VLIMIT1	POTEN	2.00000E-001	F	A Potential (V)
VLIMIT2	POTEN	1.00000E-001	F	A Potential (V)
VFINAL	POTEN	1.00000E-001	F	A Potential (V)
SCANRATE	QUANT	8.00115E+001	A Real Number
STEPSIZE	QUANT	1.00000E+000	Step Size (mV)
CYCLES	IQUANT	3	Cycles (#)
IMODE	SELECTOR	1	I/E Range Mode
IRANGE	QUANT	3.00000E-001	Max Current (mA)
AREA	QUANT	1.00000E+000	Sample Area (cm^2)
EQDELAY	QUANT	0.00000E+000	Equil. Time (s)
IRCOMP	SELECTOR	0	IRComp
PFCOR	QUANT	5.00000E+001	PF Corr. (ohm)
SAMPLINGMODE	SELECTOR	2	Sampling Mode
EOC	QUANT	0.7205974	Open Circuit (V)
ELECTRODETYPE	SELECTOR	0	Electrode Type
STRIPPING	TOGGLE	F	Used for Stripping
SEQUENCER	TOGGLE	TRUE	Run as Sequence
PSTATMODEL	IQUANT	64	Pstat Model
PSTATSECTION	LABEL	IFC1010-34090	Pstat Section
PSTATSERIALNO	LABEL	34090	Pstat Serial Number
CTRLMODE	IQUANT	1	Control Mode
ELECTROMETER	IQUANT	0	RE=0 or CS=1
IESTAB	IQUANT	2	I/E Stability
CASPEED	IQUANT	4	Control Amp Speed
CONVENTION	IQUANT	1	Current Convention
ICHRANGE	IQUANT	2	Ich Range
ICHRANGEMODE	TOGGLE	F	Ich Auto Range
ICHOFFSETENABLE	TOGGLE	F	Ich Offset Enable
ICHOFFSET	QUANT	0	Ich Offset (V)
ICHFILTER	IQUANT	3	Ich Filter
VCHRANGE	IQUANT	1	Vch Range
VCHRANGEMODE	TOGGLE	F	Vch Auto Range
VCHOFFSETENABLE	TOGGLE	F	Vch Offset Enable
VCHOFFSET	QUANT	0	Vch Offset (V)
VCHFILTER	IQUANT	3	Vch Filter
IERANGELOWERLIMIT	IQUANT	4	I/E Range Lower Limit
IERANGEMODE	TOGGLE	F	I/E AutoRange
IERANGE	IQUANT	9	I/E Range
ACHSELECT	IQUANT	0	Ach Select
ACHRANGE	IQUANT	2	Ach Range
ACHOFFSETENABLE	TOGGLE	F	Ach Offset Enable
ACHOFFSET	QUANT	0	Ach Offset (V)
ACHFILTER	IQUANT	1	Ach Filter
SENSECABLEID	IQUANT	13	Sense Cable ID
PWRCABLEID	IQUANT	13	Power Cable ID
DCCALDATE	LABEL	1/30/2024	DC Calibration Date
ACCALDATE	LABEL	1/8/2024	AC Calibration Date
FRAMEWORKVERSION	LABEL	7.10.3	Framework Version
INSTRUMENTVERSION	LABEL	4.91	Instrument Version
COMMVERSION	LABEL	3.10	Communications Version
CPUPLDVERSION	LABEL	2.22	CPU PLD Version
CTRLPLDVERSION	LABEL	0.00	CTRL PLD Version
PSTATPLDVERSION	LABEL	0.00	PSTAT PLD Version
CURVE1	TABLE
	Pt	T	Vf	Im	Vu	Sig	Ach	IERange	Over	Temp
	#	s	V vs. Ref.	A	V	V	V	#	bits	deg C
	0	0.0125	1.00266E-001	-7.10375E-006	0.00000E+000	9.99950E-002	0.00000E+000	9	...........	1466.80
	2	0.0375	1.02250E-001	-3.44412E-006	0.00000E+000	1.01995E-001	0.00000E+000	9	...........	1466.80
	4	0.0625	1.04250E-001	-3.20804E-006	0.00000E+000	1.03995E-001	0.00000E+000	9	...........	1466.80
	6	0.0875	1.06263E-001	-3.14080E-006	0.00000E+000	1.06007E-001	0.00000E+000	9	...........	1466.62
	8	0.1125	1.08265E-001	-3.16718E-006	0.00000E+000	1.08007E-001	0.00000E+000	9	...........	1466.62
	10	0.1375	1.10266E-001	-3.05542E-006	0.00000E+000	1.10006E-001	0.00000E+000	9	...........	1466.62
	12	0.1625	1.12263E-001	-2.95841E-006	0.00000E+000	1.12006E-001	0.00000E+000	9	...........	1466.62
	14	0.1875	1.14266E-001	-2.99865E-006	0.00000E+000	1.14006E-001	0.00000E+000	9	...........	1466.62
	16	0.2125	1.16267E-001	-3.01376E-006	0.00000E+000	1.16006E-001	0.00000E+000	9	...........	1466.62
	18	0.2375	1.18268E-001	-2.92682E-006	0.00000E+000	1.18006E-001	0.00000E+000	9	...........	1466.62
	20	0.2625	1.20268E-001	-2.84255E-006	0.00000E+000	1.20005E-001	0.00000E+000	9	...........	1466.62
	22	0.2875	1.22271E-001	-2.89745E-006	0.00000E+000	1.22005E-001	0.00000E+000	9	...........	1466.62
	24	0.3125	1.24273E-001	-2.91951E-006	0.00000E+000	1.24005E-001	0.00000E+000	9	...........	1466.62
	26	0.3375	1.26272E-001	-2.81502E-006	0.00000E+000	1.26005E-001	0.00000E+000	9	...........	1466.62
	28	0.3625	1.28274E-001	-2.74118E-006	0.00000E+000	1.28005E-001	0.00000E+000	9	...........	1466.62
	30	0.3875	1.30271E-001	-2.81061E-006	0.00000E+000	1.30004E-001	0.00000E+000	9	...........	1466.62
	32	0.4125	1.32273E-001	-2.81822E-006	0.00000E+000	1.32004E-001	0.00000E+000	9	...........	1466.62
	34	0.4375	1.34273E-001	-2.72447E-006	0.00000E+000	1.34004E-001	0.00000E+000	9	...........	1466.62
	36	0.4625	1.36274E-001	-2.65990E-006	0.00000E+000	1.36004E-001	0.00000E+000	9	...........	1466.62
	38	0.4875	1.38277E-001	-2.70838E-006	0.00000E+000	1.38004E-001	0.00000E+000	9	...........	1466.62
	40	0.5125	1.40276E-001	-2.73204E-006	0.00000E+000	1.40003E-001	0.00000E+000	9	...........	1466.62
	42	0.5375	1.42277E-001	-2.62884E-006	0.00000E+000	1.42003E-001	0.00000E+000	9	...........	1466.62
	44	0.5625	1.44275E-001	-2.56802E-006	0.00000E+000	1.44003E-001	0.00000E+000	9	...........	1466.62
	46	0.5875	1.46279E-001	-2.61538E-006	0.00000E+000	1.46003E-001	0.00000E+000	9	...........	1466.62
	48	0.6125	1.48278E-001	-2.62497E-006	0.00000E+000	1.48003E-001	0.00000E+000	9	...........	1466.62
	50	0.6375	1.50274E-001	-2.54690E-006	0.00000E+000	1.50002E-001	0.00000E+000	9	...........	1466.62
	52	0.6625	1.52274E-001	-2.47306E-006	0.00000E+000	1.52002E-001	0.00000E+000	9	...........	1466.62
	54	0.6875	1.54277E-001	-2.51294E-006	0.00000E+000	1.54002E-001	0.00000E+000	9	...........	1466.62
	56	0.7125	1.56289E-001	-2.49685E-006	0.00000E+000	1.56014E-001	0.00000E+000	9	...........	1466.62
	58	0.7375	1.58289E-001	-2.42195E-006	0.00000E+000	1.58014E-001	0.00000E+000	9	...........	1466.62
	60	0.7625	1.60292E-001	-2.36344E-006	0.00000E+000	1.60014E-001	0.00000E+000	9	...........	1466.62
	62	0.7875	1.62291E-001	-2.42239E-006	0.00000E+000	1.62014E-001	0.00000E+000	9	...........	1466.62
	64	0.8125	1.64293E-001	-2.42284E-006	0.00000E+000	1.64013E-001	0.00000E+000	9	...........	1466.62
	66	0.8375	1.66293E-001	-2.31326E-006	0.00000E+000	1.66013E-001	0.00000E+000	9	...........	1466.62
	68	0.8625	1.68294E-001	-2.25819E-006	0.00000E+000	1.68013E-001	0.00000E+000	9	...........	1466.62
	70	0.8875	1.70297E-001	-2.30809E-006	0.00000E+000	1.70013E-001	0.00000E+000	9	...........	1466.62
	72	0.9125	1.72298E-001	-2.31540E-006	0.00000E+000	1.72013E-001	0.00000E+000	9	...........	1466.62
	74	0.9375	1.74298E-001	-2.20815E-006	0.00000E+000	1.74012E-001	0.00000E+000	9	...........	1466.62
	76	0.9625	1.76298E-001	-2.14959E-006	0.00000E+000	1.76012E-001	0.00000E+000	9	...........	1466.62
	78	0.9875	1.78300E-001	-2.19861E-006	0.00000E+000	1.78012E-001	0.00000E+000	9	...........	1466.62
	80	1.0125	1.80301E-001	-2.19518E-006	0.00000E+000	1.80012E-001	0.00000E+000	9	...........	1466.62
	82	1.0375	1.82302E-001	-2.08930E-006	0.00000E+000	1.82012E-001	0.00000E+000	9	...........	1466.62
	84	1.0625	1.84302E-001	-2.02380E-006	0.00000E+000	1.84011E-001	0.00000E+000	9	...........	1466.62
	86	1.0875	1.86304E-001	-2.07152E-006	0.00000E+000	1.86011E-001	0.00000E+000	9	...........	1466.62
	88	1.1125	1.88304E-001	-2.07772E-006	0.00000E+000	1.88011E-001	0.00000E+000	9	...........	1466.62
	90	1.1375	1.90304E-001	-1.95950E-006	0.00000E+000	1.90011E-001	0.00000E+000	9	...........	1466.62
	92	1.1625	1.92306E-001	-1.89217E-006	0.00000E+000	1.92011E-001	0.00000E+000	9	...........	1466.62
	94	1.1875	1.94304E-001	-1.95304E-006	0.00000E+000	1.94010E-001	0.00000E+000	9	...........	1466.62
	96	1.2125	1.96305E-001	-1.94065E-006	0.00000E+000	1.96010E-001	0.00000E+000	9	...........	1466.62
	98	1.2375	1.98304E-001	-1.82287E-006	0.00000E+000	1.98010E-001	0.00000E+000	9	...........	1466.62
	100	1.2625	2.00306E-001	-1.76584E-006	0.00000E+000	2.00010E-001	0.00000E+000	9	...........	1466.62
	102	1.2875	1.98342E-001	-8.17383E-006	0.00000E+000	1.98010E-001	0.00000E+000	9	...........	1466.62
	104	1.3125	1.96341E-001	-8.46392E-006	0.00000E+000	1.96010E-001	0.00000E+000	9	...........	1466.62
	106	1.3375	1.94339E-001	-8.51262E-006	0.00000E+000	1.94010E-001	0.00000E+000	9	...........	1466.62
	108	1.3625	1.92341E-001	-8.59898E-006	0.00000E+000	1.92011E-001	0.00000E+000	9	...........	1466.62
	110	1.3875	1.90339E-001	-8.75913E-006	0.00000E+000	1.90011E-001	0.00000E+000	9	...........	1466.62
	112	1.4125	1.88340E-001	-8.83546E-006	0.00000E+000	1.88011E-001	0.00000E+000	9	...........	1466.62
	114	1.4375	1.86340E-001	-8.80815E-006	0.00000E+000	1.86011E-001	0.00000E+000	9	...........	1466.62
	116	1.4625	1.84340E-001	-8.85097E-006	0.00000E+000	1.84011E-001	0.00000E+000	9	...........	1466.62
	118	1.4875	1.82337E-001	-8.98122E-006	0.00000E+000	1.82012E-001	0.00000E+000	9	...........	1466.62
	120	1.5125	1.80337E-001	-9.02596E-006	0.00000E+000	1.80012E-001	0.00000E+000	9	...........	1466.62
	122	1.5375	1.78337E-001	-8.98670E-006	0.00000E+000	1.78012E-001	0.00000E+000	9	...........	1466.62
	124	1.5625	1.76336E-001	-9.01143E-006	0.00000E+000	1.76012E-001	0.00000E+000	9	...........	1466.62
	126	1.5875	1.74334E-001	-9.13389E-006	0.00000E+000	1.74012E-001	0.00000E+000	9	...........	1466.62
	128	1.6125	1.72333E-001	-9.16535E-006	0.00000E+000	1.72013E-001	0.00000E+000	9	...........	1466.62
	130	1.6375	1.70335E-001	-9.12217E-006	0.00000E+000	1.70013E-001	0.00000E+000	9	...........	1466.62
	132	1.6625	1.68330E-001	-9.14650E-006	0.00000E+000	1.68013E-001	0.00000E+000	9	...........	1466.62
	134	1.6875	1.66330E-001	-9.25812E-006	0.00000E+000	1.66013E-001	0.00000E+000	9	...........	1466.62
	136	1.7125	1.64329E-001	-9.28615E-006	0.00000E+000	1.64013E-001	0.00000E+000	9	...........	1466.62
	138	1.7375	1.62326E-001	-9.23352E-006	0.00000E+000	1.62014E-001	0.00000E+000	9	...........	1466.62
	140	1.7625	1.60330E-001	-9.26703E-006	0.00000E+000	1.60014E-001	0.00000E+000	9	...........	1466.62
	142	1.7875	1.58327E-001	-9.37634E-006	0.00000E+000	1.58014E-001	0.00000E+000	9	...........	1466.62
	144	1.8125	1.56327E-001	-9.41114E-006	0.00000E+000	1.56014E-001	0.00000E+000	9	...........	1466.62
	146	1.8375	1.54315E-001	-9.34559E-006	0.00000E+000	1.54002E-001	0.00000E+000	9	...........	1466.62
	148	1.8625	1.52313E-001	-9.39466E-006	0.00000E+000	1.52002E-001	0.00000E+000	9	...........	1466.62
	150	1.8875	1.50313E-001	-9.50365E-006	0.00000E+000	1.50002E-001	0.00000E+000	9	...........	1466.62
	152	1.9125	1.48314E-001	-9.52272E-006	0.00000E+000	1.48003E-001	0.00000E+000	9	...........	1466.62
	154	1.9375	1.46316E-001	-9.47861E-006	0.00000E+000	1.46003E-001	0.00000E+000	9	...........	1466.62
	156	1.9625	1.44312E-001	-9.51974E-006	0.00000E+000	1.44003E-001	0.00000E+000	9	...........	1466.62
	158	1.9875	1.42313E-001	-9.62272E-006	0.00000E+000	1.42003E-001	0.00000E+000	9	...........	1466.62
	160	2.0125	1.40314E-001	-9.64985E-006	0.00000E+000	1.40003E-001	0.00000E+000	9	...........	1466.62
	162	2.0375	1.38314E-001	-9.59625E-006	0.00000E+000	1.38004E-001	0.00000E+000	9	...........	1466.62
	164	2.0625	1.36309E-001	-9.64923E-006	0.00000E+000	1.36004E-001	0.00000E+000	9	...........	1466.62
	166	2.0875	1.34310E-001	-9.76616E-006	0.00000E+000	1.34004E-001	0.00000E+000	9	...........	1466.71
	168	2.1125	1.32309E-001	-9.79802E-006	0.00000E+000	1.32004E-001	0.00000E+000	9	...........	1466.71
	170	2.1375	1.30306E-001	-9.74851E-006	0.00000E+000	1.30004E-001	0.00000E+000	9	...........	1466.71
	172	2.1625	1.28310E-001	-9.80341E-006	0.00000E+000	1.28005E-001	0.00000E+000	9	...........	1466.71
	174	2.1875	1.26306E-001	-9.92261E-006	0.00000E+000	1.26005E-001	0.00000E+000	9	...........	1466.71
	176	2.2125	1.24306E-001	-9.95705E-006	0.00000E+000	1.24005E-001	0.00000E+000	9	...........	1466.71
	178	2.2375	1.22307E-001	-9.91806E-006	0.00000E+000	1.22005E-001	0.00000E+000	9	...........	1466.71
	180	2.2625	1.20305E-001	-9.99502E-006	0.00000E+000	1.20005E-001	0.00000E+000	9	...........	1466.71
	182	2.2875	1.18304E-001	-1.01138E-005	0.00000E+000	1.18006E-001	0.00000E+000	9	...........	1466.71
	184	2.3125	1.16303E-001	-1.01530E-005	0.00000E+000	1.16006E-001	0.00000E+000	9	...........	1466.71
	186	2.3375	1.14303E-001	-1.01246E-005	0.00000E+000	1.14006E-001	0.00000E+000	9	...........	1466.71
	188	2.3625	1.12302E-001	-1.01996E-005	0.00000E+000	1.12006E-001	0.00000E+000	9	...........	1466.71
	190	2.3875	1.10303E-001	-1.03311E-005	0.00000E+000	1.10006E-001	0.00000E+000	9	...........	1466.71
	192	2.4125	1.08301E-001	-1.03808E-005	0.00000E+000	1.08007E-001	0.00000E+000	9	...........	1466.71
	194	2.4375	1.06300E-001	-1.03541E-005	0.00000E+000	1.06007E-001	0.00000E+000	9	...........	1466.71
	196	2.4625	1.04284E-001	-1.04503E-005	0.00000E+000	1.03995E-001	0.00000E+000	9	...........	1466.71
	198	2.4875	1.02285E-001	-1.06001E-005	0.00000E+000	1.01995E-001	0.00000E+000	9	...........	1466.71
	200	2.5125	1.00286E-001	-1.06670E-005	0.00000E+000	9.99950E-002	0.00000E+000	9	...........	1466.71
CURVE2	TABLE
	Pt	T	Vf	Im	Vu	Sig	Ach	IERange	Over	Temp
	#	s	V vs. Ref.	A	V	V	V	#	bits	deg C
	201	2.525	1.01248E-001	-4.22055E-006	0.00000E+000	1.00995E-001	0.00000E+000	9	...........	1466.71
	203	2.55	1.03251E-001	-3.62401E-006	0.00000E+000	1.02995E-001	0.00000E+000	9	...........	1466.71
	205	2.575	1.05249E-001	-3.37599E-006	0.00000E+000	1.04994E-001	0.00000E+000	9	...........	1466.71
	207	2.6	1.07262E-001	-3.22506E-006	0.00000E+000	1.07007E-001	0.00000E+000	9	...........	1466.71
	209	2.625	1.09265E-001	-3.23451E-006	0.00000E+000	1.09007E-001	0.00000E+000	9	...........	1466.71
	211	2.65	1.11262E-001	-3.22511E-006	0.00000E+000	1.11006E-001	0.00000E+000	9	...........	1466.71
	213	2.675	1.13265E-001	-3.08162E-006	0.00000E+000	1.13006E-001	0.00000E+000	9	...........	1466.71
	215	2.7	1.15268E-001	-2.99950E-006	0.00000E+000	1.15006E-001	0.00000E+000	9	...........	1466.71
	217	2.725	1.17266E-001	-3.04865E-006	0.00000E+000	1.17006E-001	0.00000E+000	9	...........	1466.71
	219	2.75	1.19269E-001	-3.05007E-006	0.00000E+000	1.19006E-001	0.00000E+000	9	...........	1466.71
	221	2.775	1.21268E-001	-2.93618E-006	0.00000E+000	1.21005E-001	0.00000E+000	9	...........	1466.71
	223	2.8	1.23271E-001	-2.87041E-006	0.00000E+000	1.23005E-001	0.00000E+000	9	...........	1466.71
	225	2.825	1.25268E-001	-2.92410E-006	0.00000E+000	1.25005E-001	0.00000E+000	9	...........	1466.71
	227	2.85	1.27270E-001	-2.93096E-006	0.00000E+000	1.27005E-001	0.00000E+000	9	...........	1466.71
	229	2.875	1.29274E-001	-2.82001E-006	0.00000E+000	1.29005E-001	0.00000E+000	9	...........	1466.71
	231	2.9	1.31271E-001	-2.77005E-006	0.00000E+000	1.31004E-001	0.00000E+000	9	...........	1466.71
	233	2.925	1.33272E-001	-2.82388E-006	0.00000E+000	1.33004E-001	0.00000E+000	9	...........	1466.71
	235	2.95	1.35273E-001	-2.82959E-006	0.00000E+000	1.35004E-001	0.00000E+000	9	...........	1466.71
	237	2.975	1.37273E-001	-2.73530E-006	0.00000E+000	1.37004E-001	0.00000E+000	9	...........	1466.71
	239	3	1.39275E-001	-2.66868E-006	0.00000E+000	1.39004E-001	0.00000E+000	9	...........	1466.71
	241	3.025	1.41279E-001	-2.71614E-006	0.00000E+000	1.41003E-001	0.00000E+000	9	...........	1466.71
	243	3.05	1.43276E-001	-2.74051E-006	0.00000E+000	1.43003E-001	0.00000E+000	9	...........	1466.71
	245	3.075	1.45278E-001	-2.62465E-006	0.00000E+000	1.45003E-001	0.00000E+000	9	...........	1466.62
	247	3.1	1.47280E-001	-2.57118E-006	0.00000E+000	1.47003E-001	0.00000E+000	9	...........	1466.62
	249	3.125	1.49281E-001	-2.62880E-006	0.00000E+000	1.49003E-001	0.00000E+000	9	...........	1466.62
	251	3.15	1.51277E-001	-2.62902E-006	0.00000E+000	1.51002E-001	0.00000E+000	9	...........	1466.62
	253	3.175	1.53275E-001	-2.51887E-006	0.00000E+000	1.53002E-001	0.00000E+000	9	...........	1466.62
	255	3.2	1.55275E-001	-2.47573E-006	0.00000E+000	1.55002E-001	0.00000E+000	9	...........	1466.62
	257	3.225	1.57286E-001	-2.52270E-006	0.00000E+000	1.57014E-001	0.00000E+000	9	...........	1466.62
	259	3.25	1.59290E-001	-2.51499E-006	0.00000E+000	1.59014E-001	0.00000E+000	9	...........	1466.62
	261	3.275	1.61290E-001	-2.41344E-006	0.00000E+000	1.61014E-001	0.00000E+000	9	...........	1466.62
	263	3.3	1.63291E-001	-2.36861E-006	0.00000E+000	1.63014E-001	0.00000E+000	9	...........	1466.62
	265	3.325	1.65292E-001	-2.41090E-006	0.00000E+000	1.65013E-001	0.00000E+000	9	...........	1466.62
	267	3.35	1.67293E-001	-2.41049E-006	0.00000E+000	1.67013E-001	0.00000E+000	9	...........	1466.62
	269	3.375	1.69294E-001	-2.30333E-006	0.00000E+000	1.69013E-001	0.00000E+000	9	...........	1466.62
	271	3.4	1.71295E-001	-2.25525E-006	0.00000E+000	1.71013E-001	0.00000E+000	9	...........	1466.62
	273	3.425	1.73297E-001	-2.29878E-006	0.00000E+000	1.73013E-001	0.00000E+000	9	...........	1466.62
	275	3.45	1.75296E-001	-2.29023E-006	0.00000E+000	1.75012E-001	0.00000E+000	9	...........	1466.62
	277	3.475	1.77298E-001	-2.18350E-006	0.00000E+000	1.77012E-001	0.00000E+000	9	...........	1466.62
	279	3.5	1.79301E-001	-2.14037E-006	0.00000E+000	1.79012E-001	0.00000E+000	9	...........	1466.62
	281	3.525	1.81299E-001	-2.18800E-006	0.00000E+000	1.81012E-001	0.00000E+000	9	...........	1466.62
	283	3.55	1.83301E-001	-2.16965E-006	0.00000E+000	1.83012E-001	0.00000E+000	9	...........	1466.62
	285	3.575	1.85300E-001	-2.05771E-006	0.00000E+000	1.85011E-001	0.00000E+000	9	...........	1466.62
	287	3.6	1.87301E-001	-2.02010E-006	0.00000E+000	1.87011E-001	0.00000E+000	9	...........	1466.62
	289	3.625	1.89299E-001	-2.07411E-006	0.00000E+000	1.89011E-001	0.00000E+000	9	...........	1466.62
	291	3.65	1.91305E-001	-2.04305E-006	0.00000E+000	1.91011E-001	0.00000E+000	9	...........	1466.62
	293	3.675	1.93305E-001	-1.92126E-006	0.00000E+000	1.93011E-001	0.00000E+000	9	...........	1466.62
	295	3.7	1.95304E-001	-1.88686E-006	0.00000E+000	1.95010E-001	0.00000E+000	9	...........	1466.62
	297	3.725	1.97306E-001	-1.93419E-006	0.00000E+000	1.97010E-001	0.00000E+000	9	...........	1466.62
[...]
	431	5.4	1.31270E-001	-2.82763E-006	0.00000E+000	1.31004E-001	0.00000E+000	9	...........	1466.80
	433	5.425	1.33274E-001	-2.86475E-006	0.00000E+000	1.33004E-001	0.00000E+000	9	...........	1466.80
	435	5.45	1.35273E-001	-2.80218E-006	0.00000E+000	1.35004E-001	0.00000E+000	9	...........	1466.80
	437	5.475	1.37273E-001	-2.69470E-006	0.00000E+000	1.37004E-001	0.00000E+000	9	...........	1466.80
	439	5.5	1.39274E-001	-2.72122E-006	0.00000E+000	1.39004E-001	0.00000E+000	9	...........	1466.80
	441	5.525	1.41276E-001	-2.75415E-006	0.00000E+000	1.41003E-001	0.00000E+000	9	...........	1466.80
	443	5.55	1.43274E-001	-2.69747E-006	0.00000E+000	1.43003E-001	0.00000E+000	9	...........	1466.80
	445	5.575	1.45277E-001	-2.59199E-006	0.00000E+000	1.45003E-001	0.00000E+000	9	...........	1466.80
	447	5.6	1.47279E-001	-2.61859E-006	0.00000E+000	1.47003E-001	0.00000E+000	9	...........	1466.80
	449	5.625	1.49279E-001	-2.66231E-006	0.00000E+000	1.49003E-001	0.00000E+000	9	...........	1466.80
	451	5.65	1.51276E-001	-2.59342E-006	0.00000E+000	1.51002E-001	0.00000E+000	9	...........	1466.80
	453	5.675	1.53276E-001	-2.50336E-006	0.00000E+000	1.53002E-001	0.00000E+000	9	...........	1466.80
	455	5.7	1.55278E-001	-2.52158E-006	0.00000E+000	1.55002E-001	0.00000E+000	9	...........	1466.80
	457	5.725	1.57290E-001	-2.54845E-006	0.00000E+000	1.57014E-001	0.00000E+000	9	...........	1466.80
	459	5.75	1.59293E-001	-2.48139E-006	0.00000E+000	1.59014E-001	0.00000E+000	9	...........	1466.80
	461	5.775	1.61292E-001	-2.38131E-006	0.00000E+000	1.61014E-001	0.00000E+000	9	...........	1466.80
	463	5.8	1.63293E-001	-2.41682E-006	0.00000E+000	1.63014E-001	0.00000E+000	9	...........	1466.80
	465	5.825	1.65294E-001	-2.44802E-006	0.00000E+000	1.65013E-001	0.00000E+000	9	...........	1466.80
	467	5.85	1.67295E-001	-2.36375E-006	0.00000E+000	1.67013E-001	0.00000E+000	9	...........	1466.80
	469	5.875	1.69296E-001	-2.26594E-006	0.00000E+000	1.69013E-001	0.00000E+000	9	...........	1466.80
	471	5.9	1.71296E-001	-2.31349E-006	0.00000E+000	1.71013E-001	0.00000E+000	9	...........	1466.80
	473	5.925	1.73296E-001	-2.33167E-006	0.00000E+000	1.73013E-001	0.00000E+000	9	...........	1466.80
	475	5.95	1.75297E-001	-2.24531E-006	0.00000E+000	1.75012E-001	0.00000E+000	9	...........	1466.80
	477	5.975	1.77300E-001	-2.14291E-006	0.00000E+000	1.77012E-001	0.00000E+000	9	...........	1466.80
	479	6	1.79301E-001	-2.19398E-006	0.00000E+000	1.79012E-001	0.00000E+000	9	...........	1466.80
	481	6.025	1.81300E-001	-2.22343E-006	0.00000E+000	1.81012E-001	0.00000E+000	9	...........	1466.80
	483	6.05	1.83301E-001	-2.11746E-006	0.00000E+000	1.83012E-001	0.00000E+000	9	...........	1466.80
	485	6.075	1.85300E-001	-2.03204E-006	0.00000E+000	1.85011E-001	0.00000E+000	9	...........	1466.62
	487	6.1	1.87304E-001	-2.07126E-006	0.00000E+000	1.87011E-001	0.00000E+000	9	...........	1466.62
	489	6.125	1.89299E-001	-2.09804E-006	0.00000E+000	1.89011E-001	0.00000E+000	9	...........	1466.62
	491	6.15	1.91303E-001	-1.99274E-006	0.00000E+000	1.91011E-001	0.00000E+000	9	...........	1466.62
	493	6.175	1.93303E-001	-1.90019E-006	0.00000E+000	1.93011E-001	0.00000E+000	9	...........	1466.62
	495	6.2	1.95303E-001	-1.94181E-006	0.00000E+000	1.95010E-001	0.00000E+000	9	...........	1466.62
	497	6.225	1.97305E-001	-1.95607E-006	0.00000E+000	1.97010E-001	0.00000E+000	9	...........	1466.62
	499	6.25	1.99307E-001	-1.85545E-006	0.00000E+000	1.99010E-001	0.00000E+000	9	...........	1466.62
	501	6.275	1.99343E-001	-7.69596E-006	0.00000E+000	1.99010E-001	0.00000E+000	9	...........	1466.62
	503	6.3	1.97340E-001	-8.33398E-006	0.00000E+000	1.97010E-001	0.00000E+000	9	...........	1466.62
	505	6.325	1.95338E-001	-8.55977E-006	0.00000E+000	1.95010E-001	0.00000E+000	9	...........	1466.62
	507	6.35	1.93339E-001	-8.60460E-006	0.00000E+000	1.93011E-001	0.00000E+000	9	...........	1466.62
	509	6.375	1.91340E-001	-8.64555E-006	0.00000E+000	1.91011E-001	0.00000E+000	9	...........	1466.62
	511	6.4	1.89334E-001	-8.79540E-006	0.00000E+000	1.89011E-001	0.00000E+000	9	...........	1466.62
	513	6.425	1.87338E-001	-8.89660E-006	0.00000E+000	1.87011E-001	0.00000E+000	9	...........	1466.62
	515	6.45	1.85336E-001	-8.88034E-006	0.00000E+000	1.85011E-001	0.00000E+000	9	...........	1466.62
	517	6.475	1.83339E-001	-8.87085E-006	0.00000E+000	1.83012E-001	0.00000E+000	9	...........	1466.62
	519	6.5	1.81335E-001	-8.98661E-006	0.00000E+000	1.81012E-001	0.00000E+000	9	...........	1466.62
	521	6.525	1.79338E-001	-9.07181E-006	0.00000E+000	1.79012E-001	0.00000E+000	9	...........	1466.62
	523	6.55	1.77333E-001	-9.03207E-006	0.00000E+000	1.77012E-001	0.00000E+000	9	...........	1466.62
	525	6.575	1.75333E-001	-9.02079E-006	0.00000E+000	1.75012E-001	0.00000E+000	9	...........	1466.62
	527	6.6	1.73331E-001	-9.12520E-006	0.00000E+000	1.73013E-001	0.00000E+000	9	...........	1466.62
	529	6.625	1.71329E-001	-9.20688E-006	0.00000E+000	1.71013E-001	0.00000E+000	9	...........	1466.62
	531	6.65	1.69329E-001	-9.16887E-006	0.00000E+000	1.69013E-001	0.00000E+000	9	...........	1466.62
	533	6.675	1.67329E-001	-9.14899E-006	0.00000E+000	1.67013E-001	0.00000E+000	9	...........	1466.62
	535	6.7	1.65328E-001	-9.26124E-006	0.00000E+000	1.65013E-001	0.00000E+000	9	...........	1466.62
	537	6.725	1.63329E-001	-9.32848E-006	0.00000E+000	1.63014E-001	0.00000E+000	9	...........	1466.62
	539	6.75	1.61327E-001	-9.27889E-006	0.00000E+000	1.61014E-001	0.00000E+000	9	...........	1466.62
	541	6.775	1.59327E-001	-9.27145E-006	0.00000E+000	1.59014E-001	0.00000E+000	9	...........	1466.62
	543	6.8	1.57324E-001	-9.37438E-006	0.00000E+000	1.57014E-001	0.00000E+000	9	...........	1466.62
	545	6.825	1.55313E-001	-9.47259E-006	0.00000E+000	1.55002E-001	0.00000E+000	9	...........	1466.62
	547	6.85	1.53311E-001	-9.39728E-006	0.00000E+000	1.53002E-001	0.00000E+000	9	...........	1466.62
	549	6.875	1.51313E-001	-9.38819E-006	0.00000E+000	1.51002E-001	0.00000E+000	9	...........	1466.62
	551	6.9	1.49315E-001	-9.48641E-006	0.00000E+000	1.49003E-001	0.00000E+000	9	...........	1466.62
	553	6.925	1.47317E-001	-9.56465E-006	0.00000E+000	1.47003E-001	0.00000E+000	9	...........	1466.62
	555	6.95	1.45314E-001	-9.51640E-006	0.00000E+000	1.45003E-001	0.00000E+000	9	...........	1466.62
	557	6.975	1.43312E-001	-9.51100E-006	0.00000E+000	1.43003E-001	0.00000E+000	9	...........	1466.62
	559	7	1.41314E-001	-9.62459E-006	0.00000E+000	1.41003E-001	0.00000E+000	9	...........	1466.62
	561	7.025	1.39311E-001	-9.69887E-006	0.00000E+000	1.39004E-001	0.00000E+000	9	...........	1466.62
	563	7.05	1.37310E-001	-9.64789E-006	0.00000E+000	1.37004E-001	0.00000E+000	9	...........	1466.62
	565	7.075	1.35311E-001	-9.64544E-006	0.00000E+000	1.35004E-001	0.00000E+000	9	...........	1466.71
	567	7.1	1.33311E-001	-9.77721E-006	0.00000E+000	1.33004E-001	0.00000E+000	9	...........	1466.71
	569	7.125	1.31308E-001	-9.83968E-006	0.00000E+000	1.31004E-001	0.00000E+000	9	...........	1466.71
	571	7.15	1.29310E-001	-9.79904E-006	0.00000E+000	1.29005E-001	0.00000E+000	9	...........	1466.71
	573	7.175	1.27308E-001	-9.80448E-006	0.00000E+000	1.27005E-001	0.00000E+000	9	...........	1466.71
	575	7.2	1.25305E-001	-9.93642E-006	0.00000E+000	1.25005E-001	0.00000E+000	9	...........	1466.71
	577	7.225	1.23308E-001	-9.99881E-006	0.00000E+000	1.23005E-001	0.00000E+000	9	...........	1466.71
	579	7.25	1.21306E-001	-9.97216E-006	0.00000E+000	1.21005E-001	0.00000E+000	9	...........	1466.71
	581	7.275	1.19305E-001	-9.99007E-006	0.00000E+000	1.19006E-001	0.00000E+000	9	...........	1466.71
	583	7.3	1.17303E-001	-1.01213E-005	0.00000E+000	1.17006E-001	0.00000E+000	9	...........	1466.71
	585	7.325	1.15302E-001	-1.02201E-005	0.00000E+000	1.15006E-001	0.00000E+000	9	...........	1466.71
	587	7.35	1.13301E-001	-1.01725E-005	0.00000E+000	1.13006E-001	0.00000E+000	9	...........	1466.71
	589	7.375	1.11299E-001	-1.02038E-005	0.00000E+000	1.11006E-001	0.00000E+000	9	...........	1466.71
	591	7.4	1.09300E-001	-1.03591E-005	0.00000E+000	1.09007E-001	0.00000E+000	9	...........	1466.71
	593	7.425	1.07299E-001	-1.04323E-005	0.00000E+000	1.07007E-001	0.00000E+000	9	...........	1466.71
	595	7.45	1.05286E-001	-1.04642E-005	0.00000E+000	1.04994E-001	0.00000E+000	9	...........	1466.71
	597	7.475	1.03285E-001	-1.04588E-005	0.00000E+000	1.02995E-001	0.00000E+000	9	...........	1466.71
	599	7.5	1.01286E-001	-1.06190E-005	0.00000E+000	1.00995E-001	0.00000E+000	9	...........	1466.71
	600	7.5125	1.00285E-001	-1.05624E-005	0.00000E+000	9.99950E-002	0.00000E+000	9	...........	1466.71
CURVE4	TABLE
	Pt	T	Vf	Im	Vu	Sig	Ach	IERange	Over	Temp
	#	s	V vs. Ref.	A	V	V	V	#	bits	deg C
	601	7.525	1.00268E-001	-7.48523E-006	0.00000E+000	9.99950E-002	0.00000E+000	9	...........	1466.71