File: input/CV_ECSA_#2_#9.DTA
EXPLAIN
TAG	CV
TITLE	LABEL	ECSA	Test Identifier
DATE	LABEL	17.7.2024	Date
TIME	LABEL	13:21:09	Time
NOTES	NOTES	1	Notes...

PSTAT	PSTAT	IFC1010-34090	Potentiostat
VINIT	POTEN	1.00000E-001	F	A Potential (V)
VLIMIT1	POTEN	2.00000E-001	F	A Potential (V)
VLIMIT2	POTEN	1.00000E-001	F	A Potential (V)
VFINAL	POTEN	1.00000E-001	F	A Potential (V)
SCANRATE	QUANT	8.99998E+001	A Real Number
STEPSIZE	QUANT	1.00000E+000	Step Size (mV)
CYCLES	IQUANT	3	Cycles (#)
IMODE	SELECTOR	1	I/E Range Mode
IRANGE	QUANT	3.00000E-001	Max Current (mA)
AREA	QUANT	1.00000E+000	Sample Area (cm^2)
EQDELAY	QUANT	0.00000E+000	Equil. Time (s)
IRCOMP	SELECTOR	0	IRComp
PFCOR	QUANT	5.00000E+001	PF Corr. (ohm)
SAMPLINGMODE	SELECTOR	2	Sampling Mode
EOC	QUANT	0.7205974	Open Circuit (V)
ELECTRODETYPE	SELECTOR	0	Electrode Type
STRIPPING	TOGGLE	F	Used for Stripping
SEQUENCER	TOGGLE	TRUE	Run as Sequence
PSTATMODEL	IQUANT	64	Pstat Model
PSTATSECTION	LABEL	IFC1010-34090	Pstat Section
PSTATSERIALNO	LABEL	34090	Pstat Serial Number
CTRLMODE	IQUANT	1	Control Mode
ELECTROMETER	IQUANT	0	RE=0 or CS=1
IESTAB	IQUANT	2	I/E Stability
CASPEED	IQUANT	4	Control Amp Speed
CONVENTION	IQUANT	1	Current Convention
ICHRANGE	IQUANT	2	Ich Range
ICHRANGEMODE	TOGGLE	F	Ich Auto Range
ICHOFFSETENABLE	TOGGLE	F	Ich Offset Enable
ICHOFFSET	QUANT	0	Ich Offset (V)
ICHFILTER	IQUANT	3	Ich Filter
VCHRANGE	IQUANT	1	Vch Range
VCHRANGEMODE	TOGGLE	F	Vch Auto Range
VCHOFFSETENABLE	TOGGLE	F	Vch Offset Enable
VCHOFFSET	QUANT	0	Vch Offset (V)
VCHFILTER	IQUANT	3	Vch Filter
IERANGELOWERLIMIT	IQUANT	4	I/E Range Lower Limit
IERANGEMODE	TOGGLE	F	I/E AutoRange
IERANGE	IQUANT	9	I/E Range
ACHSELECT	IQUANT	0	Ach Select
ACHRANGE	IQUANT	2	Ach Range
ACHOFFSETENABLE	TOGGLE	F	Ach Offset Enable
ACHOFFSET	QUANT	0	Ach Offset (V)
ACHFILTER	IQUANT	1	Ach Filter
SENSECABLEID	IQUANT	13	Sense Cable ID
PWRCABLEID	IQUANT	13	Power Cable ID
DCCALDATE	LABEL	1/30/2024	DC Calibration Date
ACCALDATE	LABEL	1/8/2024	AC Calibration Date
FRAMEWORKVERSION	LABEL	7.10.3	Framework Version
INSTRUMENTVERSION	LABEL	4.91	Instrument Version
COMMVERSION	LABEL	3.10	Communications Version
CPUPLDVERSION	LABEL	2.22	CPU PLD Version
CTRLPLDVERSION	LABEL	0.00	CTRL PLD Version
PSTATPLDVERSION	LABEL	0.00	PSTAT PLD Version
CURVE1	TABLE
	Pt	T	Vf	Im	Vu	Sig	Ach	IERange	Over	Temp
	#	s	V vs. Ref.	A	V	V	V	#	bits	deg C
	0	0.011117	1.00295E-001	-2.07404E-005	0.00000E+000	9.99950E-002	0.00000E+000	9	...........	1467.43
	3	0.044467	1.03289E-001	-1.64709E-005	0.00000E+000	1.03007E-001	0.00000E+000	9	...........	1467.43
	6	0.077817	1.06288E-001	-1.59828E-005	0.00000E+000	1.06007E-001	0.00000E+000	9	...........	1467.43
	9	0.111167	1.09290E-001	-1.57306E-005	0.00000E+000	1.09007E-001	0.00000E+000	9	...........	1467.43
	12	0.144517	1.12289E-001	-1.55863E-005	0.00000E+000	1.12006E-001	0.00000E+000	9	...........	1467.43
	15	0.177867	1.15293E-001	-1.52400E-005	0.00000E+000	1.15006E-001	0.00000E+000	9	...........	1467.43
	18	0.211217	1.18292E-001	-1.50389E-005	0.00000E+000	1.18006E-001	0.00000E+000	9	...........	1467.43
	21	0.244567	1.21295E-001	-1.49291E-005	0.00000E+000	1.21005E-001	0.00000E+000	9	...........	1467.43
	24	0.277917	1.24309E-001	-1.46218E-005	0.00000E+000	1.24018E-001	0.00000E+000	9	...........	1467.43
	27	0.311267	1.27307E-001	-1.44212E-005	0.00000E+000	1.27017E-001	0.00000E+000	9	...........	1467.70
	30	0.344617	1.30310E-001	-1.43383E-005	0.00000E+000	1.30017E-001	0.00000E+000	9	...........	1467.70
	33	0.377967	1.33312E-001	-1.40535E-005	0.00000E+000	1.33017E-001	0.00000E+000	9	...........	1467.70
	36	0.411317	1.36312E-001	-1.38521E-005	0.00000E+000	1.36016E-001	0.00000E+000	9	...........	1467.70
	39	0.444667	1.39311E-001	-1.37732E-005	0.00000E+000	1.39016E-001	0.00000E+000	9	...........	1467.70
	42	0.478017	1.42315E-001	-1.35060E-005	0.00000E+000	1.42016E-001	0.00000E+000	9	...........	1467.70
	45	0.511367	1.45327E-001	-1.32962E-005	0.00000E+000	1.45028E-001	0.00000E+000	9	...........	1467.70
	48	0.544717	1.48331E-001	-1.32401E-005	0.00000E+000	1.48028E-001	0.00000E+000	9	...........	1467.70
	51	0.578067	1.51327E-001	-1.29643E-005	0.00000E+000	1.51027E-001	0.00000E+000	9	...........	1467.70
	54	0.611417	1.54329E-001	-1.27629E-005	0.00000E+000	1.54027E-001	0.00000E+000	9	...........	1467.70
	57	0.644767	1.57326E-001	-1.27054E-005	0.00000E+000	1.57027E-001	0.00000E+000	9	...........	1467.70
	60	0.678117	1.60332E-001	-1.24421E-005	0.00000E+000	1.60026E-001	0.00000E+000	9	...........	1467.70
	63	0.711467	1.63329E-001	-1.22291E-005	0.00000E+000	1.63026E-001	0.00000E+000	9	...........	1467.70
	66	0.744817	1.66342E-001	-1.21737E-005	0.00000E+000	1.66038E-001	0.00000E+000	9	...........	1467.70
	69	0.778167	1.69344E-001	-1.19353E-005	0.00000E+000	1.69038E-001	0.00000E+000	9	...........	1467.70
	72	0.811517	1.72347E-001	-1.16928E-005	0.00000E+000	1.72038E-001	0.00000E+000	9	...........	1467.70
	75	0.844867	1.75346E-001	-1.16454E-005	0.00000E+000	1.75037E-001	0.00000E+000	9	...........	1467.70
	78	0.878217	1.78349E-001	-1.13825E-005	0.00000E+000	1.78037E-001	0.00000E+000	9	...........	1467.70
	81	0.911567	1.81349E-001	-1.11475E-005	0.00000E+000	1.81037E-001	0.00000E+000	9	...........	1467.70
	84	0.944917	1.84352E-001	-1.10818E-005	0.00000E+000	1.84036E-001	0.00000E+000	9	...........	1467.70
	87	0.97827	1.87365E-001	-1.08189E-005	0.00000E+000	1.87049E-001	0.00000E+000	9	...........	1467.70
	90	1.01162	1.90366E-001	-1.05510E-005	0.00000E+000	1.90048E-001	0.00000E+000	9	...........	1467.70
	93	1.04497	1.93369E-001	-1.04747E-005	0.00000E+000	1.93048E-001	0.00000E+000	9	...........	1467.70
	96	1.07832	1.96370E-001	-1.01875E-005	0.00000E+000	1.96048E-001	0.00000E+000	9	...........	1467.70
	99	1.11167	1.99370E-001	-9.90708E-006	0.00000E+000	1.99047E-001	0.00000E+000	9	...........	1467.70
	102	1.14502	1.98408E-001	-1.75141E-005	0.00000E+000	1.98048E-001	0.00000E+000	9	...........	1467.70
	105	1.17837	1.95407E-001	-1.82938E-005	0.00000E+000	1.95048E-001	0.00000E+000	9	...........	1467.70
	108	1.21172	1.92408E-001	-1.86893E-005	0.00000E+000	1.92048E-001	0.00000E+000	9	...........	1467.70
	111	1.24507	1.89404E-001	-1.91796E-005	0.00000E+000	1.89048E-001	0.00000E+000	9	...........	1467.70
	114	1.27842	1.86406E-001	-1.94138E-005	0.00000E+000	1.86049E-001	0.00000E+000	9	...........	1467.70
	117	1.31177	1.83393E-001	-1.95914E-005	0.00000E+000	1.83037E-001	0.00000E+000	9	...........	1467.52
	120	1.34512	1.80392E-001	-1.99365E-005	0.00000E+000	1.80037E-001	0.00000E+000	9	...........	1467.52
	123	1.37847	1.77389E-001	-2.01122E-005	0.00000E+000	1.77037E-001	0.00000E+000	9	...........	1467.52
	126	1.41182	1.74391E-001	-2.02007E-005	0.00000E+000	1.74037E-001	0.00000E+000	9	...........	1467.52
	129	1.44517	1.71388E-001	-2.05112E-005	0.00000E+000	1.71038E-001	0.00000E+000	9	...........	1467.52
	132	1.47852	1.68384E-001	-2.06526E-005	0.00000E+000	1.68038E-001	0.00000E+000	9	...........	1467.52
	135	1.51187	1.65384E-001	-2.07355E-005	0.00000E+000	1.65038E-001	0.00000E+000	9	...........	1467.52
	138	1.54522	1.62368E-001	-2.10016E-005	0.00000E+000	1.62026E-001	0.00000E+000	9	...........	1467.52
	141	1.57857	1.59370E-001	-2.11428E-005	0.00000E+000	1.59026E-001	0.00000E+000	9	...........	1467.52
	144	1.61192	1.56369E-001	-2.12102E-005	0.00000E+000	1.56027E-001	0.00000E+000	9	...........	1467.52
	147	1.64527	1.53368E-001	-2.14634E-005	0.00000E+000	1.53027E-001	0.00000E+000	9	...........	1467.52
	150	1.67862	1.50368E-001	-2.16142E-005	0.00000E+000	1.50027E-001	0.00000E+000	9	...........	1467.52
	153	1.71197	1.47371E-001	-2.16661E-005	0.00000E+000	1.47028E-001	0.00000E+000	9	...........	1467.52
	156	1.74532	1.44367E-001	-2.19178E-005	0.00000E+000	1.44028E-001	0.00000E+000	9	...........	1467.52
	159	1.77867	1.41358E-001	-2.20854E-005	0.00000E+000	1.41016E-001	0.00000E+000	9	...........	1467.52
	162	1.81202	1.38356E-001	-2.21351E-005	0.00000E+000	1.38016E-001	0.00000E+000	9	...........	1467.52
	165	1.84537	1.35356E-001	-2.23907E-005	0.00000E+000	1.35016E-001	0.00000E+000	9	...........	1467.52
	168	1.87872	1.32354E-001	-2.25854E-005	0.00000E+000	1.32017E-001	0.00000E+000	9	...........	1467.52
	171	1.91207	1.29354E-001	-2.26313E-005	0.00000E+000	1.29017E-001	0.00000E+000	9	...........	1467.52
	174	1.94542	1.26351E-001	-2.28890E-005	0.00000E+000	1.26017E-001	0.00000E+000	9	...........	1467.52
	177	1.97877	1.23351E-001	-2.30828E-005	0.00000E+000	1.23018E-001	0.00000E+000	9	...........	1467.52
	180	2.01212	1.20336E-001	-2.31432E-005	0.00000E+000	1.20005E-001	0.00000E+000	9	...........	1467.52
	183	2.04547	1.17333E-001	-2.34200E-005	0.00000E+000	1.17006E-001	0.00000E+000	9	...........	1467.52
	186	2.07882	1.14333E-001	-2.36233E-005	0.00000E+000	1.14006E-001	0.00000E+000	9	...........	1467.52
	189	2.11217	1.11328E-001	-2.37140E-005	0.00000E+000	1.11006E-001	0.00000E+000	9	...........	1467.52
	192	2.14552	1.08329E-001	-2.39864E-005	0.00000E+000	1.08007E-001	0.00000E+000	9	...........	1467.52
	195	2.17887	1.05328E-001	-2.42301E-005	0.00000E+000	1.05007E-001	0.00000E+000	9	...........	1467.52
	198	2.21222	1.02315E-001	-2.43588E-005	0.00000E+000	1.01995E-001	0.00000E+000	9	...........	1467.52
	200	2.23445	1.00316E-001	-2.45058E-005	0.00000E+000	9.99950E-002	0.00000E+000	9	...........	1467.52
CURVE2	TABLE
	Pt	T	Vf	Im	Vu	Sig	Ach	IERange	Over	Temp
	#	s	V vs. Ref.	A	V	V	V	#	bits	deg C
	201	2.24557	1.01276E-001	-1.76105E-005	0.00000E+000	1.00995E-001	0.00000E+000	9	...........	1467.52
	204	2.27892	1.04288E-001	-1.65621E-005	0.00000E+000	1.04007E-001	0.00000E+000	9	...........	1467.52
	207	2.31227	1.07288E-001	-1.60464E-005	0.00000E+000	1.07007E-001	0.00000E+000	9	...........	1467.61
	210	2.34562	1.10292E-001	-1.58106E-005	0.00000E+000	1.10006E-001	0.00000E+000	9	...........	1467.61
	213	2.37897	1.13292E-001	-1.56148E-005	0.00000E+000	1.13006E-001	0.00000E+000	9	...........	1467.61
	216	2.41232	1.16293E-001	-1.52524E-005	0.00000E+000	1.16006E-001	0.00000E+000	9	...........	1467.61
	219	2.44567	1.19295E-001	-1.50959E-005	0.00000E+000	1.19006E-001	0.00000E+000	9	...........	1467.61
	222	2.47902	1.22295E-001	-1.49385E-005	0.00000E+000	1.22005E-001	0.00000E+000	9	...........	1467.61
	225	2.51237	1.25310E-001	-1.46122E-005	0.00000E+000	1.25017E-001	0.00000E+000	9	...........	1467.61
	228	2.54572	1.28310E-001	-1.44714E-005	0.00000E+000	1.28017E-001	0.00000E+000	9	...........	1467.61
	231	2.57907	1.31311E-001	-1.43430E-005	0.00000E+000	1.31017E-001	0.00000E+000	9	...........	1467.61
	234	2.61242	1.34313E-001	-1.40248E-005	0.00000E+000	1.34017E-001	0.00000E+000	9	...........	1467.61
	237	2.64577	1.37312E-001	-1.38993E-005	0.00000E+000	1.37016E-001	0.00000E+000	9	...........	1467.61
	240	2.67912	1.40312E-001	-1.37910E-005	0.00000E+000	1.40016E-001	0.00000E+000	9	...........	1467.61
	243	2.71247	1.43310E-001	-1.34839E-005	0.00000E+000	1.43016E-001	0.00000E+000	9	...........	1467.61
	246	2.74582	1.46328E-001	-1.33251E-005	0.00000E+000	1.46028E-001	0.00000E+000	9	...........	1467.61
	249	2.77917	1.49329E-001	-1.32408E-005	0.00000E+000	1.49027E-001	0.00000E+000	9	...........	1467.61
	252	2.81252	1.52326E-001	-1.29381E-005	0.00000E+000	1.52027E-001	0.00000E+000	9	...........	1467.61
	255	2.84587	1.55326E-001	-1.27911E-005	0.00000E+000	1.55027E-001	0.00000E+000	9	...........	1467.61
	258	2.87922	1.58327E-001	-1.26889E-005	0.00000E+000	1.58027E-001	0.00000E+000	9	...........	1467.61
	261	2.91257	1.61331E-001	-1.24103E-005	0.00000E+000	1.61026E-001	0.00000E+000	9	...........	1467.61
	264	2.94592	1.64331E-001	-1.22486E-005	0.00000E+000	1.64026E-001	0.00000E+000	9	...........	1467.61
	267	2.97927	1.67343E-001	-1.21629E-005	0.00000E+000	1.67038E-001	0.00000E+000	9	...........	1467.61
	270	3.01262	1.70346E-001	-1.18695E-005	0.00000E+000	1.70038E-001	0.00000E+000	9	...........	1467.61
	273	3.04597	1.73348E-001	-1.17025E-005	0.00000E+000	1.73038E-001	0.00000E+000	9	...........	1467.61
	276	3.07932	1.76348E-001	-1.16251E-005	0.00000E+000	1.76037E-001	0.00000E+000	9	...........	1467.61
	279	3.11267	1.79353E-001	-1.13499E-005	0.00000E+000	1.79037E-001	0.00000E+000	9	...........	1467.61
	282	3.14602	1.82352E-001	-1.11400E-005	0.00000E+000	1.82037E-001	0.00000E+000	9	...........	1467.61
	285	3.17937	1.85353E-001	-1.10617E-005	0.00000E+000	1.85036E-001	0.00000E+000	9	...........	1467.61
	288	3.21272	1.88366E-001	-1.07706E-005	0.00000E+000	1.88049E-001	0.00000E+000	9	...........	1467.61
	291	3.24607	1.91368E-001	-1.05486E-005	0.00000E+000	1.91048E-001	0.00000E+000	9	...........	1467.61
	294	3.27942	1.94364E-001	-1.04546E-005	0.00000E+000	1.94048E-001	0.00000E+000	9	...........	1467.61
	297	3.31277	1.97366E-001	-1.01336E-005	0.00000E+000	1.97048E-001	0.00000E+000	9	...........	1467.34
	300	3.34612	2.00367E-001	-9.88437E-006	0.00000E+000	2.00047E-001	0.00000E+000	9	...........	1467.34
	303	3.37947	1.97407E-001	-1.79226E-005	0.00000E+000	1.97048E-001	0.00000E+000	9	...........	1467.34
	306	3.41282	1.94403E-001	-1.84732E-005	0.00000E+000	1.94048E-001	0.00000E+000	9	...........	1467.34
	309	3.44617	1.91405E-001	-1.88642E-005	0.00000E+000	1.91048E-001	0.00000E+000	9	...........	1467.34
	312	3.47952	1.88406E-001	-1.92955E-005	0.00000E+000	1.88049E-001	0.00000E+000	9	...........	1467.34
	315	3.51287	1.85392E-001	-1.95425E-005	0.00000E+000	1.85036E-001	0.00000E+000	9	...........	1467.34
	318	3.54622	1.82392E-001	-1.96954E-005	0.00000E+000	1.82037E-001	0.00000E+000	9	...........	1467.34
	321	3.57957	1.79393E-001	-2.00275E-005	0.00000E+000	1.79037E-001	0.00000E+000	9	...........	1467.34
	324	3.61292	1.76387E-001	-2.01605E-005	0.00000E+000	1.76037E-001	0.00000E+000	9	...........	1467.34
	327	3.64627	1.73389E-001	-2.02842E-005	0.00000E+000	1.73038E-001	0.00000E+000	9	...........	1467.34
	330	3.67962	1.70386E-001	-2.05785E-005	0.00000E+000	1.70038E-001	0.00000E+000	9	...........	1467.34
	333	3.71297	1.67384E-001	-2.06871E-005	0.00000E+000	1.67038E-001	0.00000E+000	9	...........	1467.34
	336	3.74632	1.64371E-001	-2.08241E-005	0.00000E+000	1.64026E-001	0.00000E+000	9	...........	1467.34
	339	3.77967	1.61372E-001	-2.10695E-005	0.00000E+000	1.61026E-001	0.00000E+000	9	...........	1467.34
	342	3.81302	1.58369E-001	-2.11673E-005	0.00000E+000	1.58027E-001	0.00000E+000	9	...........	1467.34
	345	3.84637	1.55368E-001	-2.12579E-005	0.00000E+000	1.55027E-001	0.00000E+000	9	...........	1467.34
	348	3.87972	1.52368E-001	-2.15292E-005	0.00000E+000	1.52027E-001	0.00000E+000	9	...........	1467.34
	351	3.91307	1.49371E-001	-2.16305E-005	0.00000E+000	1.49027E-001	0.00000E+000	9	...........	1467.34
	354	3.94642	1.46369E-001	-2.17213E-005	0.00000E+000	1.46028E-001	0.00000E+000	9	...........	1467.34
	357	3.97977	1.43354E-001	-2.20423E-005	0.00000E+000	1.43016E-001	0.00000E+000	9	...........	1467.34
	360	4.01312	1.40354E-001	-2.21308E-005	0.00000E+000	1.40016E-001	0.00000E+000	9	...........	1467.34
	363	4.04647	1.37353E-001	-2.22036E-005	0.00000E+000	1.37016E-001	0.00000E+000	9	...........	1467.34
	366	4.07982	1.34353E-001	-2.24754E-005	0.00000E+000	1.34017E-001	0.00000E+000	9	...........	1467.34
	369	4.11317	1.31350E-001	-2.26170E-005	0.00000E+000	1.31017E-001	0.00000E+000	9	...........	1467.34
	372	4.14652	1.28352E-001	-2.26772E-005	0.00000E+000	1.28017E-001	0.00000E+000	9	...........	1467.34
	375	4.17987	1.25349E-001	-2.29704E-005	0.00000E+000	1.25017E-001	0.00000E+000	9	...........	1467.34
	378	4.21322	1.22337E-001	-2.31648E-005	0.00000E+000	1.22005E-001	0.00000E+000	9	...........	1467.34
	381	4.24657	1.19335E-001	-2.32010E-005	0.00000E+000	1.19006E-001	0.00000E+000	9	...........	1467.34
	384	4.27992	1.16331E-001	-2.34979E-005	0.00000E+000	1.16006E-001	0.00000E+000	9	...........	1467.34
	387	4.31327	1.13332E-001	-2.36844E-005	0.00000E+000	1.13006E-001	0.00000E+000	9	...........	1467.43
	390	4.34662	1.10330E-001	-2.37669E-005	0.00000E+000	1.10006E-001	0.00000E+000	9	...........	1467.43
	393	4.37997	1.07329E-001	-2.40798E-005	0.00000E+000	1.07007E-001	0.00000E+000	9	...........	1467.43
	396	4.41332	1.04327E-001	-2.42791E-005	0.00000E+000	1.04007E-001	0.00000E+000	9	...........	1467.43
	399	4.44667	1.01316E-001	-2.43890E-005	0.00000E+000	1.00995E-001	0.00000E+000	9	...........	1467.43
	400	4.45778	1.00314E-001	-2.46087E-005	0.00000E+000	9.99950E-002	0.00000E+000	9	...........	1467.43
CURVE3	TABLE
	Pt	T	Vf	Im	Vu	Sig	Ach	IERange	Over	Temp
	#	s	V vs. Ref.	A	V	V	V	#	bits	deg C
	401	4.4689	1.01274E-001	-1.75505E-005	0.00000E+000	1.00995E-001	0.00000E+000	9	...........	1467.43
	404	4.50225	1.04289E-001	-1.64877E-005	0.00000E+000	1.04007E-001	0.00000E+000	9	...........	1467.43
	407	4.5356	1.07288E-001	-1.61916E-005	0.00000E+000	1.07007E-001	0.00000E+000	9	...........	1467.43
	410	4.56895	1.10293E-001	-1.57720E-005	0.00000E+000	1.10006E-001	0.00000E+000	9	...........	1467.43
	413	4.6023	1.13292E-001	-1.55429E-005	0.00000E+000	1.13006E-001	0.00000E+000	9	...........	1467.43
	416	4.63565	1.16292E-001	-1.54008E-005	0.00000E+000	1.16006E-001	0.00000E+000	9	...........	1467.43
	419	4.669	1.19294E-001	-1.50557E-005	0.00000E+000	1.19006E-001	0.00000E+000	9	...........	1467.43
	422	4.70235	1.22295E-001	-1.48592E-005	0.00000E+000	1.22005E-001	0.00000E+000	9	...........	1467.43
	425	4.7357	1.25308E-001	-1.47533E-005	0.00000E+000	1.25017E-001	0.00000E+000	9	...........	1467.43
	428	4.76905	1.28312E-001	-1.44470E-005	0.00000E+000	1.28017E-001	0.00000E+000	9	...........	1467.43
	431	4.8024	1.31309E-001	-1.42620E-005	0.00000E+000	1.31017E-001	0.00000E+000	9	...........	1467.43
	434	4.83575	1.34312E-001	-1.41593E-005	0.00000E+000	1.34017E-001	0.00000E+000	9	...........	1467.43
	437	4.8691	1.37313E-001	-1.38915E-005	0.00000E+000	1.37016E-001	0.00000E+000	9	...........	1467.43
	440	4.90245	1.40313E-001	-1.36865E-005	0.00000E+000	1.40016E-001	0.00000E+000	9	...........	1467.43
	443	4.9358	1.43313E-001	-1.36199E-005	0.00000E+000	1.43016E-001	0.00000E+000	9	...........	1467.43
	446	4.96915	1.46330E-001	-1.33318E-005	0.00000E+000	1.46028E-001	0.00000E+000	9	...........	1467.43
	449	5.0025	1.49331E-001	-1.31391E-005	0.00000E+000	1.49027E-001	0.00000E+000	9	...........	1467.43
	452	5.03585	1.52328E-001	-1.30794E-005	0.00000E+000	1.52027E-001	0.00000E+000	9	...........	1467.43
	455	5.0692	1.55329E-001	-1.28026E-005	0.00000E+000	1.55027E-001	0.00000E+000	9	...........	1467.43
	458	5.10255	1.58329E-001	-1.25934E-005	0.00000E+000	1.58027E-001	0.00000E+000	9	...........	1467.43
	461	5.1359	1.61333E-001	-1.25340E-005	0.00000E+000	1.61026E-001	0.00000E+000	9	...........	1467.43
	464	5.16925	1.64332E-001	-1.22814E-005	0.00000E+000	1.64026E-001	0.00000E+000	9	...........	1467.43
	467	5.2026	1.67342E-001	-1.20571E-005	0.00000E+000	1.67038E-001	0.00000E+000	9	...........	1467.43
	470	5.23595	1.70346E-001	-1.19849E-005	0.00000E+000	1.70038E-001	0.00000E+000	9	...........	1467.43
	473	5.2693	1.73345E-001	-1.17345E-005	0.00000E+000	1.73038E-001	0.00000E+000	9	...........	1467.43
	476	5.30265	1.76348E-001	-1.15056E-005	0.00000E+000	1.76037E-001	0.00000E+000	9	...........	1467.34
	479	5.336	1.79351E-001	-1.14487E-005	0.00000E+000	1.79037E-001	0.00000E+000	9	...........	1467.34
	482	5.36935	1.82350E-001	-1.11840E-005	0.00000E+000	1.82037E-001	0.00000E+000	9	...........	1467.34
	485	5.4027	1.85350E-001	-1.09367E-005	0.00000E+000	1.85036E-001	0.00000E+000	9	...........	1467.34
	488	5.43605	1.88366E-001	-1.08668E-005	0.00000E+000	1.88049E-001	0.00000E+000	9	...........	1467.34
	491	5.4694	1.91369E-001	-1.05903E-005	0.00000E+000	1.91048E-001	0.00000E+000	9	...........	1467.34
	494	5.50275	1.94367E-001	-1.03236E-005	0.00000E+000	1.94048E-001	0.00000E+000	9	...........	1467.34
	497	5.5361	1.97369E-001	-1.02257E-005	0.00000E+000	1.97048E-001	0.00000E+000	9	...........	1467.34
	500	5.56945	2.00371E-001	-9.94101E-006	0.00000E+000	2.00047E-001	0.00000E+000	9	...........	1467.34
	503	5.6028	1.97411E-001	-1.77626E-005	0.00000E+000	1.97048E-001	0.00000E+000	9	...........	1467.34
	506	5.63615	1.94408E-001	-1.85310E-005	0.00000E+000	1.94048E-001	0.00000E+000	9	...........	1467.34
	509	5.6695	1.91409E-001	-1.88862E-005	0.00000E+000	1.91048E-001	0.00000E+000	9	...........	1467.34
	512	5.70285	1.88407E-001	-1.91478E-005	0.00000E+000	1.88049E-001	0.00000E+000	9	...........	1467.34
	515	5.7362	1.85391E-001	-1.95825E-005	0.00000E+000	1.85036E-001	0.00000E+000	9	...........	1467.34
	518	5.76955	1.82391E-001	-1.97431E-005	0.00000E+000	1.82037E-001	0.00000E+000	9	...........	1467.34
	521	5.8029	1.79392E-001	-1.98655E-005	0.00000E+000	1.79037E-001	0.00000E+000	9	...........	1467.34
	524	5.83625	1.76386E-001	-2.01982E-005	0.00000E+000	1.76037E-001	0.00000E+000	9	...........	1467.34
	527	5.8696	1.73387E-001	-2.03405E-005	0.00000E+000	1.73038E-001	0.00000E+000	9	...........	1467.34
	530	5.90295	1.70387E-001	-2.04157E-005	0.00000E+000	1.70038E-001	0.00000E+000	9	...........	1467.34
	533	5.9363	1.67385E-001	-2.07044E-005	0.00000E+000	1.67038E-001	0.00000E+000	9	...........	1467.34
	536	5.96965	1.64372E-001	-2.08861E-005	0.00000E+000	1.64026E-001	0.00000E+000	9	...........	1467.34
	539	6.003	1.61371E-001	-2.09026E-005	0.00000E+000	1.61026E-001	0.00000E+000	9	...........	1467.34
	542	6.03635	1.58369E-001	-2.11821E-005	0.00000E+000	1.58027E-001	0.00000E+000	9	...........	1467.34
	545	6.0697	1.55367E-001	-2.13208E-005	0.00000E+000	1.55027E-001	0.00000E+000	9	...........	1467.34
	548	6.10305	1.52367E-001	-2.13778E-005	0.00000E+000	1.52027E-001	0.00000E+000	9	...........	1467.34
	551	6.1364	1.49369E-001	-2.16325E-005	0.00000E+000	1.49027E-001	0.00000E+000	9	...........	1467.34
	554	6.16975	1.46371E-001	-2.17998E-005	0.00000E+000	1.46028E-001	0.00000E+000	9	...........	1467.34
	557	6.2031	1.43355E-001	-2.18898E-005	0.00000E+000	1.43016E-001	0.00000E+000	9	...........	1467.34
	560	6.23645	1.40355E-001	-2.21021E-005	0.00000E+000	1.40016E-001	0.00000E+000	9	...........	1467.34
	563	6.2698	1.37356E-001	-2.22722E-005	0.00000E+000	1.37016E-001	0.00000E+000	9	...........	1467.34
	566	6.30315	1.34353E-001	-2.23288E-005	0.00000E+000	1.34017E-001	0.00000E+000	9	...........	1467.43
	569	6.3365	1.31352E-001	-2.25901E-005	0.00000E+000	1.31017E-001	0.00000E+000	9	...........	1467.43
	572	6.36985	1.28353E-001	-2.27666E-005	0.00000E+000	1.28017E-001	0.00000E+000	9	...........	1467.43
	575	6.4032	1.25348E-001	-2.28243E-005	0.00000E+000	1.25017E-001	0.00000E+000	9	...........	1467.43
	578	6.43655	1.22334E-001	-2.31314E-005	0.00000E+000	1.22005E-001	0.00000E+000	9	...........	1467.43
	581	6.4699	1.19334E-001	-2.32971E-005	0.00000E+000	1.19006E-001	0.00000E+000	9	...........	1467.43
	584	6.50325	1.16335E-001	-2.33571E-005	0.00000E+000	1.16006E-001	0.00000E+000	9	...........	1467.43
	587	6.5366	1.13333E-001	-2.36403E-005	0.00000E+000	1.13006E-001	0.00000E+000	9	...........	1467.43
	590	6.56995	1.10332E-001	-2.38627E-005	0.00000E+000	1.10006E-001	0.00000E+000	9	...........	1467.43
	593	6.6033	1.07329E-001	-2.39410E-005	0.00000E+000	1.07007E-001	0.00000E+000	9	...........	1467.43
	596	6.63665	1.04328E-001	-2.42248E-005	0.00000E+000	1.04007E-001	0.00000E+000	9	...........	1467.43
	599	6.67	1.01316E-001	-2.44937E-005	0.00000E+000	1.00995E-001	0.00000E+000	9	...........	1467.43
	600	6.68112	1.00316E-001	-2.44258E-005	0.00000E+000	9.99950E-002	0.00000E+000	9	...........	1467.43
CURVE4	TABLE
	Pt	T	Vf	Im	Vu	Sig	Ach	IERange	Over	Temp
	#	s	V vs. Ref.	A	V	V	V	#	bits	deg C
	601	6.69223	1.00296E-001	-2.11558E-005	0.00000E+000	9.99950E-002	0.00000E+000	9	...........	1467.43