File: input/CV_ECSA_#2_#3.DTA
EXPLAIN
TAG	CV
TITLE	LABEL	ECSA	Test Identifier
DATE	LABEL	17.7.2024	Date
TIME	LABEL	13:19:55	Time
NOTES	NOTES	1	Notes...

PSTAT	PSTAT	IFC1010-34090	Potentiostat
VINIT	POTEN	1.00000E-001	F	A Potential (V)
VLIMIT1	POTEN	2.00000E-001	F	A Potential (V)
VLIMIT2	POTEN	1.00000E-001	F	A Potential (V)
VFINAL	POTEN	1.00000E-001	F	A Potential (V)
SCANRATE	QUANT	3.00000E+001	A Real Number
STEPSIZE	QUANT	1.00000E+000	Step Size (mV)
CYCLES	IQUANT	3	Cycles (#)
IMODE	SELECTOR	1	I/E Range Mode
IRANGE	QUANT	3.00000E-001	Max Current (mA)
AREA	QUANT	1.00000E+000	Sample Area (cm^2)
EQDELAY	QUANT	0.00000E+000	Equil. Time (s)
IRCOMP	SELECTOR	0	IRComp
PFCOR	QUANT	5.00000E+001	PF Corr. (ohm)
SAMPLINGMODE	SELECTOR	2	Sampling Mode
EOC	QUANT	0.7205974	Open Circuit (V)
ELECTRODETYPE	SELECTOR	0	Electrode Type
STRIPPING	TOGGLE	F	Used for Stripping
SEQUENCER	TOGGLE	TRUE	Run as Sequence
PSTATMODEL	IQUANT	64	Pstat Model
PSTATSECTION	LABEL	IFC1010-34090	Pstat Section
PSTATSERIALNO	LABEL	34090	Pstat Serial Number
CTRLMODE	IQUANT	1	Control Mode
ELECTROMETER	IQUANT	0	RE=0 or CS=1
IESTAB	IQUANT	2	I/E Stability
CASPEED	IQUANT	4	Control Amp Speed
CONVENTION	IQUANT	1	Current Convention
ICHRANGE	IQUANT	2	Ich Range
ICHRANGEMODE	TOGGLE	F	Ich Auto Range
ICHOFFSETENABLE	TOGGLE	F	Ich Offset Enable
ICHOFFSET	QUANT	0	Ich Offset (V)
ICHFILTER	IQUANT	3	Ich Filter
VCHRANGE	IQUANT	1	Vch Range
VCHRANGEMODE	TOGGLE	F	Vch Auto Range
VCHOFFSETENABLE	TOGGLE	F	Vch Offset Enable
VCHOFFSET	QUANT	0	Vch Offset (V)
VCHFILTER	IQUANT	3	Vch Filter
IERANGELOWERLIMIT	IQUANT	4	I/E Range Lower Limit
IERANGEMODE	TOGGLE	F	I/E AutoRange
IERANGE	IQUANT	9	I/E Range
ACHSELECT	IQUANT	0	Ach Select
ACHRANGE	IQUANT	2	Ach Range
ACHOFFSETENABLE	TOGGLE	F	Ach Offset Enable
ACHOFFSET	QUANT	0	Ach Offset (V)
ACHFILTER	IQUANT	1	Ach Filter
SENSECABLEID	IQUANT	13	Sense Cable ID
PWRCABLEID	IQUANT	13	Power Cable ID
DCCALDATE	LABEL	1/30/2024	DC Calibration Date
ACCALDATE	LABEL	1/8/2024	AC Calibration Date
FRAMEWORKVERSION	LABEL	7.10.3	Framework Version
INSTRUMENTVERSION	LABEL	4.91	Instrument Version
COMMVERSION	LABEL	3.10	Communications Version
CPUPLDVERSION	LABEL	2.22	CPU PLD Version
CTRLPLDVERSION	LABEL	0.00	CTRL PLD Version
PSTATPLDVERSION	LABEL	0.00	PSTAT PLD Version
CURVE1	TABLE
	Pt	T	Vf	Im	Vu	Sig	Ach	IERange	Over	Temp
	#	s	V vs. Ref.	A	V	V	V	#	bits	deg C
	0	0.033333	1.00295E-001	-2.05261E-005	0.00000E+000	9.99950E-002	0.00000E+000	9	...........	1467.43
	2	0.1	1.02289E-001	-1.87624E-005	0.00000E+000	1.01995E-001	0.00000E+000	9	...........	1467.88
	4	0.166667	1.04288E-001	-1.85709E-005	0.00000E+000	1.03995E-001	0.00000E+000	9	...........	1467.88
	6	0.233333	1.06289E-001	-1.83559E-005	0.00000E+000	1.05994E-001	0.00000E+000	9	...........	1467.88
	8	0.3	1.08292E-001	-1.81875E-005	0.00000E+000	1.07994E-001	0.00000E+000	9	...........	1467.88
	10	0.366667	1.10294E-001	-1.80711E-005	0.00000E+000	1.09994E-001	0.00000E+000	9	...........	1467.88
	12	0.433333	1.12292E-001	-1.78923E-005	0.00000E+000	1.11994E-001	0.00000E+000	9	...........	1467.88
	14	0.5	1.14305E-001	-1.77555E-005	0.00000E+000	1.14006E-001	0.00000E+000	9	...........	1467.88
	16	0.566667	1.16306E-001	-1.76567E-005	0.00000E+000	1.16006E-001	0.00000E+000	9	...........	1467.88
	18	0.633333	1.18305E-001	-1.74948E-005	0.00000E+000	1.18006E-001	0.00000E+000	9	...........	1467.88
	20	0.7	1.20307E-001	-1.73709E-005	0.00000E+000	1.20005E-001	0.00000E+000	9	...........	1467.88
	22	0.766667	1.22308E-001	-1.72833E-005	0.00000E+000	1.22005E-001	0.00000E+000	9	...........	1467.88
	24	0.833333	1.24310E-001	-1.71342E-005	0.00000E+000	1.24005E-001	0.00000E+000	9	...........	1467.88
	26	0.9	1.26312E-001	-1.70131E-005	0.00000E+000	1.26005E-001	0.00000E+000	9	...........	1467.88
	28	0.96667	1.28314E-001	-1.69321E-005	0.00000E+000	1.28005E-001	0.00000E+000	9	...........	1467.88
	30	1.03333	1.30312E-001	-1.67938E-005	0.00000E+000	1.30004E-001	0.00000E+000	9	...........	1467.88
	32	1.1	1.32314E-001	-1.66809E-005	0.00000E+000	1.32004E-001	0.00000E+000	9	...........	1467.61
	34	1.16667	1.34314E-001	-1.66037E-005	0.00000E+000	1.34004E-001	0.00000E+000	9	...........	1467.61
	36	1.23333	1.36313E-001	-1.64646E-005	0.00000E+000	1.36004E-001	0.00000E+000	9	...........	1467.61
	38	1.3	1.38316E-001	-1.63640E-005	0.00000E+000	1.38004E-001	0.00000E+000	9	...........	1467.61
	40	1.36667	1.40315E-001	-1.62926E-005	0.00000E+000	1.40003E-001	0.00000E+000	9	...........	1467.61
	42	1.43333	1.42315E-001	-1.61543E-005	0.00000E+000	1.42003E-001	0.00000E+000	9	...........	1467.61
	44	1.5	1.44314E-001	-1.60643E-005	0.00000E+000	1.44003E-001	0.00000E+000	9	...........	1467.61
	46	1.56667	1.46318E-001	-1.59952E-005	0.00000E+000	1.46003E-001	0.00000E+000	9	...........	1467.61
	48	1.63333	1.48316E-001	-1.58638E-005	0.00000E+000	1.48003E-001	0.00000E+000	9	...........	1467.61
	50	1.7	1.50315E-001	-1.57859E-005	0.00000E+000	1.50002E-001	0.00000E+000	9	...........	1467.61
	52	1.76667	1.52315E-001	-1.57145E-005	0.00000E+000	1.52002E-001	0.00000E+000	9	...........	1467.61
	54	1.83333	1.54317E-001	-1.55800E-005	0.00000E+000	1.54002E-001	0.00000E+000	9	...........	1467.61
	56	1.9	1.56316E-001	-1.55064E-005	0.00000E+000	1.56002E-001	0.00000E+000	9	...........	1467.61
	58	1.96667	1.58316E-001	-1.54456E-005	0.00000E+000	1.58002E-001	0.00000E+000	9	...........	1467.61
	60	2.03333	1.60320E-001	-1.53184E-005	0.00000E+000	1.60001E-001	0.00000E+000	9	...........	1467.61
	62	2.1	1.62319E-001	-1.52455E-005	0.00000E+000	1.62001E-001	0.00000E+000	9	...........	1467.43
	64	2.16667	1.64319E-001	-1.51753E-005	0.00000E+000	1.64001E-001	0.00000E+000	9	...........	1467.43
	66	2.23333	1.66323E-001	-1.50489E-005	0.00000E+000	1.66001E-001	0.00000E+000	9	...........	1467.43
	68	2.3	1.68322E-001	-1.49834E-005	0.00000E+000	1.68001E-001	0.00000E+000	9	...........	1467.43
	70	2.36667	1.70325E-001	-1.49110E-005	0.00000E+000	1.70000E-001	0.00000E+000	9	...........	1467.43
	72	2.43333	1.72324E-001	-1.47879E-005	0.00000E+000	1.72000E-001	0.00000E+000	9	...........	1467.43
	74	2.5	1.74325E-001	-1.47241E-005	0.00000E+000	1.74000E-001	0.00000E+000	9	...........	1467.43
	76	2.56667	1.76323E-001	-1.46555E-005	0.00000E+000	1.76000E-001	0.00000E+000	9	...........	1467.43
	78	2.63333	1.78326E-001	-1.45340E-005	0.00000E+000	1.78000E-001	0.00000E+000	9	...........	1467.43
	80	2.7	1.80328E-001	-1.44692E-005	0.00000E+000	1.79999E-001	0.00000E+000	9	...........	1467.43
	82	2.76667	1.82327E-001	-1.44040E-005	0.00000E+000	1.81999E-001	0.00000E+000	9	...........	1467.43
	84	2.83333	1.84329E-001	-1.42741E-005	0.00000E+000	1.83999E-001	0.00000E+000	9	...........	1467.43
	86	2.9	1.86329E-001	-1.42146E-005	0.00000E+000	1.85999E-001	0.00000E+000	9	...........	1467.43
	88	2.96667	1.88329E-001	-1.41431E-005	0.00000E+000	1.87999E-001	0.00000E+000	9	...........	1467.43
	90	3.03333	1.90329E-001	-1.40161E-005	0.00000E+000	1.89998E-001	0.00000E+000	9	...........	1467.43
	92	3.1	1.92330E-001	-1.39565E-005	0.00000E+000	1.91998E-001	0.00000E+000	9	...........	1467.43
	94	3.16667	1.94330E-001	-1.38814E-005	0.00000E+000	1.93998E-001	0.00000E+000	9	...........	1467.43
	96	3.23333	1.96331E-001	-1.37552E-005	0.00000E+000	1.95998E-001	0.00000E+000	9	...........	1467.43
	98	3.3	1.98332E-001	-1.36911E-005	0.00000E+000	1.97998E-001	0.00000E+000	9	...........	1467.43
	100	3.36667	2.00333E-001	-1.36184E-005	0.00000E+000	1.99997E-001	0.00000E+000	9	...........	1467.43
	102	3.43333	1.98347E-001	-1.65690E-005	0.00000E+000	1.97998E-001	0.00000E+000	9	...........	1467.43
	104	3.5	1.96344E-001	-1.69450E-005	0.00000E+000	1.95998E-001	0.00000E+000	9	...........	1467.43
	106	3.56667	1.94342E-001	-1.72197E-005	0.00000E+000	1.93998E-001	0.00000E+000	9	...........	1467.43
	108	3.63333	1.92344E-001	-1.74007E-005	0.00000E+000	1.91998E-001	0.00000E+000	9	...........	1467.43
	110	3.7	1.90342E-001	-1.76179E-005	0.00000E+000	1.89998E-001	0.00000E+000	9	...........	1467.43
	112	3.76667	1.88342E-001	-1.77890E-005	0.00000E+000	1.87999E-001	0.00000E+000	9	...........	1467.43
	114	3.83333	1.86342E-001	-1.79056E-005	0.00000E+000	1.85999E-001	0.00000E+000	9	...........	1467.43
	116	3.9	1.84342E-001	-1.80749E-005	0.00000E+000	1.83999E-001	0.00000E+000	9	...........	1467.43
	118	3.96667	1.82341E-001	-1.82120E-005	0.00000E+000	1.81999E-001	0.00000E+000	9	...........	1467.43
	120	4.03333	1.80341E-001	-1.82989E-005	0.00000E+000	1.79999E-001	0.00000E+000	9	...........	1467.43
	122	4.1	1.78341E-001	-1.84509E-005	0.00000E+000	1.78000E-001	0.00000E+000	9	...........	1467.79
	124	4.16667	1.76337E-001	-1.85744E-005	0.00000E+000	1.76000E-001	0.00000E+000	9	...........	1467.79
	126	4.23333	1.74337E-001	-1.86390E-005	0.00000E+000	1.74000E-001	0.00000E+000	9	...........	1467.79
	128	4.3	1.72337E-001	-1.87780E-005	0.00000E+000	1.72000E-001	0.00000E+000	9	...........	1467.79
	130	4.36667	1.70337E-001	-1.88800E-005	0.00000E+000	1.70000E-001	0.00000E+000	9	...........	1467.79
	132	4.43333	1.68333E-001	-1.89400E-005	0.00000E+000	1.68001E-001	0.00000E+000	9	...........	1467.79
	134	4.5	1.66335E-001	-1.90733E-005	0.00000E+000	1.66001E-001	0.00000E+000	9	...........	1467.79
	136	4.56667	1.64332E-001	-1.91658E-005	0.00000E+000	1.64001E-001	0.00000E+000	9	...........	1467.79
	138	4.63333	1.62331E-001	-1.92228E-005	0.00000E+000	1.62001E-001	0.00000E+000	9	...........	1467.79
	140	4.7	1.60333E-001	-1.93427E-005	0.00000E+000	1.60001E-001	0.00000E+000	9	...........	1467.79
	142	4.76667	1.58330E-001	-1.94384E-005	0.00000E+000	1.58002E-001	0.00000E+000	9	...........	1467.79
	144	4.83333	1.56329E-001	-1.94936E-005	0.00000E+000	1.56002E-001	0.00000E+000	9	...........	1467.79
	146	4.9	1.54329E-001	-1.96114E-005	0.00000E+000	1.54002E-001	0.00000E+000	9	...........	1467.79
	148	4.96667	1.52327E-001	-1.97016E-005	0.00000E+000	1.52002E-001	0.00000E+000	9	...........	1467.79
	150	5.03333	1.50328E-001	-1.97552E-005	0.00000E+000	1.50002E-001	0.00000E+000	9	...........	1467.79
	152	5.1	1.48330E-001	-1.98690E-005	0.00000E+000	1.48003E-001	0.00000E+000	9	...........	1467.70
	154	5.16667	1.46330E-001	-1.99591E-005	0.00000E+000	1.46003E-001	0.00000E+000	9	...........	1467.70
	156	5.23333	1.44328E-001	-2.00087E-005	0.00000E+000	1.44003E-001	0.00000E+000	9	...........	1467.70
	158	5.3	1.42331E-001	-2.01318E-005	0.00000E+000	1.42003E-001	0.00000E+000	9	...........	1467.70
	160	5.36667	1.40330E-001	-2.02153E-005	0.00000E+000	1.40003E-001	0.00000E+000	9	...........	1467.70
	162	5.43333	1.38329E-001	-2.02632E-005	0.00000E+000	1.38004E-001	0.00000E+000	9	...........	1467.70
	164	5.5	1.36325E-001	-2.03835E-005	0.00000E+000	1.36004E-001	0.00000E+000	9	...........	1467.70
	166	5.56667	1.34326E-001	-2.04703E-005	0.00000E+000	1.34004E-001	0.00000E+000	9	...........	1467.70
	168	5.63333	1.32325E-001	-2.05236E-005	0.00000E+000	1.32004E-001	0.00000E+000	9	...........	1467.70
	170	5.7	1.30324E-001	-2.06456E-005	0.00000E+000	1.30004E-001	0.00000E+000	9	...........	1467.70
	172	5.76667	1.28326E-001	-2.07249E-005	0.00000E+000	1.28005E-001	0.00000E+000	9	...........	1467.70
	174	5.83333	1.26322E-001	-2.07800E-005	0.00000E+000	1.26005E-001	0.00000E+000	9	...........	1467.70
	176	5.9	1.24323E-001	-2.09020E-005	0.00000E+000	1.24005E-001	0.00000E+000	9	...........	1467.70
	178	5.96667	1.22321E-001	-2.09830E-005	0.00000E+000	1.22005E-001	0.00000E+000	9	...........	1467.70
	180	6.03333	1.20322E-001	-2.10476E-005	0.00000E+000	1.20005E-001	0.00000E+000	9	...........	1467.70
	182	6.1	1.18320E-001	-2.11676E-005	0.00000E+000	1.18006E-001	0.00000E+000	9	...........	1467.79
	184	6.16667	1.16319E-001	-2.12478E-005	0.00000E+000	1.16006E-001	0.00000E+000	9	...........	1467.79
	186	6.23333	1.14320E-001	-2.13076E-005	0.00000E+000	1.14006E-001	0.00000E+000	9	...........	1467.79
	188	6.3	1.12304E-001	-2.14503E-005	0.00000E+000	1.11994E-001	0.00000E+000	9	...........	1467.79
	190	6.36667	1.10306E-001	-2.15147E-005	0.00000E+000	1.09994E-001	0.00000E+000	9	...........	1467.79
	192	6.43333	1.08303E-001	-2.15769E-005	0.00000E+000	1.07994E-001	0.00000E+000	9	...........	1467.79
	194	6.5	1.06302E-001	-2.17106E-005	0.00000E+000	1.05994E-001	0.00000E+000	9	...........	1467.79
	196	6.56667	1.04301E-001	-2.17914E-005	0.00000E+000	1.03995E-001	0.00000E+000	9	...........	1467.79
	198	6.63333	1.02302E-001	-2.18632E-005	0.00000E+000	1.01995E-001	0.00000E+000	9	...........	1467.79
	200	6.7	1.00301E-001	-2.20022E-005	0.00000E+000	9.99950E-002	0.00000E+000	9	...........	1467.79
CURVE2	TABLE
	Pt	T	Vf	Im	Vu	Sig	Ach	IERange	Over	Temp
	#	s	V vs. Ref.	A	V	V	V	#	bits	deg C
	201	6.73333	1.01289E-001	-1.92139E-005	0.00000E+000	1.00995E-001	0.00000E+000	9	...........	1467.79
	203	6.8	1.03289E-001	-1.89248E-005	0.00000E+000	1.02995E-001	0.00000E+000	9	...........	1467.79
	205	6.86667	1.05287E-001	-1.86880E-005	0.00000E+000	1.04994E-001	0.00000E+000	9	...........	1467.79
	207	6.93333	1.07290E-001	-1.84727E-005	0.00000E+000	1.06994E-001	0.00000E+000	9	...........	1467.79
	209	7	1.09292E-001	-1.83403E-005	0.00000E+000	1.08994E-001	0.00000E+000	9	...........	1467.79
	211	7.06667	1.11288E-001	-1.81607E-005	0.00000E+000	1.10994E-001	0.00000E+000	9	...........	1467.68
	213	7.13333	1.13306E-001	-1.79675E-005	0.00000E+000	1.13006E-001	0.00000E+000	9	...........	1467.43
	215	7.2	1.15308E-001	-1.78826E-005	0.00000E+000	1.15006E-001	0.00000E+000	9	...........	1467.43
	217	7.26667	1.17306E-001	-1.77240E-005	0.00000E+000	1.17006E-001	0.00000E+000	9	...........	1467.43
	219	7.33333	1.19309E-001	-1.75695E-005	0.00000E+000	1.19006E-001	0.00000E+000	9	...........	1467.43
	221	7.4	1.21309E-001	-1.74749E-005	0.00000E+000	1.21005E-001	0.00000E+000	9	...........	1467.43
	223	7.46667	1.23311E-001	-1.73260E-005	0.00000E+000	1.23005E-001	0.00000E+000	9	...........	1467.43
	225	7.53333	1.25308E-001	-1.71918E-005	0.00000E+000	1.25005E-001	0.00000E+000	9	...........	1467.43
	227	7.6	1.27310E-001	-1.71024E-005	0.00000E+000	1.27005E-001	0.00000E+000	9	...........	1467.43
	229	7.66667	1.29313E-001	-1.69618E-005	0.00000E+000	1.29005E-001	0.00000E+000	9	...........	1467.43
	231	7.73333	1.31311E-001	-1.68396E-005	0.00000E+000	1.31004E-001	0.00000E+000	9	...........	1467.43
	233	7.8	1.33314E-001	-1.67657E-005	0.00000E+000	1.33004E-001	0.00000E+000	9	...........	1467.43
	235	7.86667	1.35314E-001	-1.66316E-005	0.00000E+000	1.35004E-001	0.00000E+000	9	...........	1467.43
	237	7.93333	1.37313E-001	-1.65101E-005	0.00000E+000	1.37004E-001	0.00000E+000	9	...........	1467.43
	239	8	1.39314E-001	-1.64341E-005	0.00000E+000	1.39004E-001	0.00000E+000	9	...........	1467.43
	241	8.06667	1.41316E-001	-1.63027E-005	0.00000E+000	1.41003E-001	0.00000E+000	9	...........	1467.43
	243	8.13333	1.43313E-001	-1.61961E-005	0.00000E+000	1.43003E-001	0.00000E+000	9	...........	1467.43
	245	8.2	1.45314E-001	-1.61272E-005	0.00000E+000	1.45003E-001	0.00000E+000	9	...........	1467.43
	247	8.26667	1.47316E-001	-1.60040E-005	0.00000E+000	1.47003E-001	0.00000E+000	9	...........	1467.43
	249	8.33333	1.49319E-001	-1.59002E-005	0.00000E+000	1.49003E-001	0.00000E+000	9	...........	1467.43
	251	8.4	1.51318E-001	-1.58373E-005	0.00000E+000	1.51002E-001	0.00000E+000	9	...........	1467.43
	253	8.46667	1.53316E-001	-1.57137E-005	0.00000E+000	1.53002E-001	0.00000E+000	9	...........	1467.43
	255	8.53333	1.55314E-001	-1.56164E-005	0.00000E+000	1.55002E-001	0.00000E+000	9	...........	1467.43
	257	8.6	1.57316E-001	-1.55569E-005	0.00000E+000	1.57002E-001	0.00000E+000	9	...........	1467.43
	259	8.66667	1.59320E-001	-1.54324E-005	0.00000E+000	1.59001E-001	0.00000E+000	9	...........	1467.43
	261	8.73333	1.61320E-001	-1.53478E-005	0.00000E+000	1.61001E-001	0.00000E+000	9	...........	1467.43
	263	8.8	1.63319E-001	-1.52872E-005	0.00000E+000	1.63001E-001	0.00000E+000	9	...........	1467.43
	265	8.86667	1.65321E-001	-1.51628E-005	0.00000E+000	1.65001E-001	0.00000E+000	9	...........	1467.43
	267	8.93333	1.67322E-001	-1.50746E-005	0.00000E+000	1.67001E-001	0.00000E+000	9	...........	1467.43
	269	9	1.69323E-001	-1.50113E-005	0.00000E+000	1.69000E-001	0.00000E+000	9	...........	1467.43
	271	9.06667	1.71324E-001	-1.48943E-005	0.00000E+000	1.71000E-001	0.00000E+000	9	...........	1467.46
	273	9.13333	1.73325E-001	-1.48027E-005	0.00000E+000	1.73000E-001	0.00000E+000	9	...........	1467.52
	275	9.2	1.75324E-001	-1.47492E-005	0.00000E+000	1.75000E-001	0.00000E+000	9	...........	1467.52
	277	9.26667	1.77326E-001	-1.46265E-005	0.00000E+000	1.77000E-001	0.00000E+000	9	...........	1467.52
	279	9.33333	1.79329E-001	-1.45465E-005	0.00000E+000	1.78999E-001	0.00000E+000	9	...........	1467.52
	281	9.4	1.81329E-001	-1.44964E-005	0.00000E+000	1.80999E-001	0.00000E+000	9	...........	1467.52
	283	9.46667	1.83331E-001	-1.43638E-005	0.00000E+000	1.82999E-001	0.00000E+000	9	...........	1467.52
	285	9.5333	1.85329E-001	-1.42820E-005	0.00000E+000	1.84999E-001	0.00000E+000	9	...........	1467.52
	287	9.6	1.87331E-001	-1.42313E-005	0.00000E+000	1.86999E-001	0.00000E+000	9	...........	1467.52
	289	9.6667	1.89328E-001	-1.41078E-005	0.00000E+000	1.88998E-001	0.00000E+000	9	...........	1467.52
	291	9.7333	1.91332E-001	-1.40259E-005	0.00000E+000	1.90998E-001	0.00000E+000	9	...........	1467.52
	293	9.8	1.93332E-001	-1.39679E-005	0.00000E+000	1.92998E-001	0.00000E+000	9	...........	1467.52
	295	9.8667	1.95331E-001	-1.38455E-005	0.00000E+000	1.94998E-001	0.00000E+000	9	...........	1467.52
	297	9.9333	1.97332E-001	-1.37659E-005	0.00000E+000	1.96998E-001	0.00000E+000	9	...........	1467.52
[...]
	435	14.5333	1.35315E-001	-1.66237E-005	0.00000E+000	1.35004E-001	0.00000E+000	9	...........	1467.43
	437	14.6	1.37314E-001	-1.65130E-005	0.00000E+000	1.37004E-001	0.00000E+000	9	...........	1467.43
	439	14.6667	1.39315E-001	-1.63823E-005	0.00000E+000	1.39004E-001	0.00000E+000	9	...........	1467.43
	441	14.7333	1.41318E-001	-1.63077E-005	0.00000E+000	1.41003E-001	0.00000E+000	9	...........	1467.43
	443	14.8	1.43313E-001	-1.61983E-005	0.00000E+000	1.43003E-001	0.00000E+000	9	...........	1467.43
	445	14.8667	1.45315E-001	-1.60774E-005	0.00000E+000	1.45003E-001	0.00000E+000	9	...........	1467.43
	447	14.9333	1.47318E-001	-1.60087E-005	0.00000E+000	1.47003E-001	0.00000E+000	9	...........	1467.43
	449	15	1.49317E-001	-1.58999E-005	0.00000E+000	1.49003E-001	0.00000E+000	9	...........	1467.43
	451	15.0667	1.51315E-001	-1.57768E-005	0.00000E+000	1.51002E-001	0.00000E+000	9	...........	1467.51
	453	15.1333	1.53315E-001	-1.57223E-005	0.00000E+000	1.53002E-001	0.00000E+000	9	...........	1467.61
	455	15.2	1.55316E-001	-1.56107E-005	0.00000E+000	1.55002E-001	0.00000E+000	9	...........	1467.61
	457	15.2667	1.57315E-001	-1.54951E-005	0.00000E+000	1.57002E-001	0.00000E+000	9	...........	1467.61
	459	15.3333	1.59320E-001	-1.54388E-005	0.00000E+000	1.59001E-001	0.00000E+000	9	...........	1467.61
	461	15.4	1.61320E-001	-1.53316E-005	0.00000E+000	1.61001E-001	0.00000E+000	9	...........	1467.61
	463	15.4667	1.63318E-001	-1.52280E-005	0.00000E+000	1.63001E-001	0.00000E+000	9	...........	1467.61
	465	15.5333	1.65320E-001	-1.51734E-005	0.00000E+000	1.65001E-001	0.00000E+000	9	...........	1467.61
	467	15.6	1.67321E-001	-1.50607E-005	0.00000E+000	1.67001E-001	0.00000E+000	9	...........	1467.61
	469	15.6667	1.69320E-001	-1.49588E-005	0.00000E+000	1.69000E-001	0.00000E+000	9	...........	1467.61
	471	15.7333	1.71323E-001	-1.49035E-005	0.00000E+000	1.71000E-001	0.00000E+000	9	...........	1467.61
	473	15.8	1.73323E-001	-1.47900E-005	0.00000E+000	1.73000E-001	0.00000E+000	9	...........	1467.61
	475	15.8667	1.75322E-001	-1.46967E-005	0.00000E+000	1.75000E-001	0.00000E+000	9	...........	1467.61
	477	15.9333	1.77324E-001	-1.46409E-005	0.00000E+000	1.77000E-001	0.00000E+000	9	...........	1467.61
	479	16	1.79328E-001	-1.45309E-005	0.00000E+000	1.78999E-001	0.00000E+000	9	...........	1467.61
	481	16.0667	1.81326E-001	-1.44326E-005	0.00000E+000	1.80999E-001	0.00000E+000	9	...........	1467.53
	483	16.1333	1.83329E-001	-1.43705E-005	0.00000E+000	1.82999E-001	0.00000E+000	9	...........	1467.43
	485	16.2	1.85327E-001	-1.42688E-005	0.00000E+000	1.84999E-001	0.00000E+000	9	...........	1467.43
	487	16.2667	1.87328E-001	-1.41729E-005	0.00000E+000	1.86999E-001	0.00000E+000	9	...........	1467.43
	489	16.3333	1.89324E-001	-1.41149E-005	0.00000E+000	1.88998E-001	0.00000E+000	9	...........	1467.43
	491	16.4	1.91330E-001	-1.40023E-005	0.00000E+000	1.90998E-001	0.00000E+000	9	...........	1467.43
	493	16.4667	1.93330E-001	-1.39064E-005	0.00000E+000	1.92998E-001	0.00000E+000	9	...........	1467.43
	495	16.5333	1.95329E-001	-1.38485E-005	0.00000E+000	1.94998E-001	0.00000E+000	9	...........	1467.43
	497	16.6	1.97332E-001	-1.37278E-005	0.00000E+000	1.96998E-001	0.00000E+000	9	...........	1467.43
	499	16.6667	1.99332E-001	-1.36382E-005	0.00000E+000	1.98997E-001	0.00000E+000	9	...........	1467.43
	501	16.7333	1.99345E-001	-1.63162E-005	0.00000E+000	1.98997E-001	0.00000E+000	9	...........	1467.43
	503	16.8	1.97345E-001	-1.67344E-005	0.00000E+000	1.96998E-001	0.00000E+000	9	...........	1467.43
	505	16.8667	1.95343E-001	-1.70186E-005	0.00000E+000	1.94998E-001	0.00000E+000	9	...........	1467.43
	507	16.9333	1.93344E-001	-1.72808E-005	0.00000E+000	1.92998E-001	0.00000E+000	9	...........	1467.43
	509	17	1.91344E-001	-1.74493E-005	0.00000E+000	1.90998E-001	0.00000E+000	9	...........	1467.43
	511	17.0667	1.89341E-001	-1.76171E-005	0.00000E+000	1.88998E-001	0.00000E+000	9	...........	1467.56
	513	17.1333	1.87343E-001	-1.78067E-005	0.00000E+000	1.86999E-001	0.00000E+000	9	...........	1467.70
	515	17.2	1.85340E-001	-1.79235E-005	0.00000E+000	1.84999E-001	0.00000E+000	9	...........	1467.70
	517	17.2667	1.83342E-001	-1.80530E-005	0.00000E+000	1.82999E-001	0.00000E+000	9	...........	1467.70
	519	17.3333	1.81340E-001	-1.82026E-005	0.00000E+000	1.80999E-001	0.00000E+000	9	...........	1467.70
	521	17.4	1.79341E-001	-1.82947E-005	0.00000E+000	1.78999E-001	0.00000E+000	9	...........	1467.70
	523	17.4667	1.77337E-001	-1.84120E-005	0.00000E+000	1.77000E-001	0.00000E+000	9	...........	1467.70
	525	17.5333	1.75335E-001	-1.85471E-005	0.00000E+000	1.75000E-001	0.00000E+000	9	...........	1467.70
	527	17.6	1.73338E-001	-1.86233E-005	0.00000E+000	1.73000E-001	0.00000E+000	9	...........	1467.70
	529	17.6667	1.71335E-001	-1.87242E-005	0.00000E+000	1.71000E-001	0.00000E+000	9	...........	1467.70
	531	17.7333	1.69334E-001	-1.88570E-005	0.00000E+000	1.69000E-001	0.00000E+000	9	...........	1467.70
	533	17.8	1.67334E-001	-1.89215E-005	0.00000E+000	1.67001E-001	0.00000E+000	9	...........	1467.70
	535	17.8667	1.65335E-001	-1.90156E-005	0.00000E+000	1.65001E-001	0.00000E+000	9	...........	1467.70
	537	17.9333	1.63331E-001	-1.91389E-005	0.00000E+000	1.63001E-001	0.00000E+000	9	...........	1467.70
	539	18	1.61332E-001	-1.91916E-005	0.00000E+000	1.61001E-001	0.00000E+000	9	...........	1467.70
	541	18.0667	1.59333E-001	-1.92880E-005	0.00000E+000	1.59001E-001	0.00000E+000	9	...........	1467.57
	543	18.1333	1.57327E-001	-1.94119E-005	0.00000E+000	1.57002E-001	0.00000E+000	9	...........	1467.43
	545	18.2	1.55328E-001	-1.94638E-005	0.00000E+000	1.55002E-001	0.00000E+000	9	...........	1467.43
	547	18.2667	1.53327E-001	-1.95537E-005	0.00000E+000	1.53002E-001	0.00000E+000	9	...........	1467.43
	549	18.3333	1.51329E-001	-1.96725E-005	0.00000E+000	1.51002E-001	0.00000E+000	9	...........	1467.43
	551	18.4	1.49331E-001	-1.97163E-005	0.00000E+000	1.49003E-001	0.00000E+000	9	...........	1467.43
	553	18.4667	1.47331E-001	-1.98165E-005	0.00000E+000	1.47003E-001	0.00000E+000	9	...........	1467.43
	555	18.5333	1.45330E-001	-1.99340E-005	0.00000E+000	1.45003E-001	0.00000E+000	9	...........	1467.43
	557	18.6	1.43328E-001	-1.99818E-005	0.00000E+000	1.43003E-001	0.00000E+000	9	...........	1467.43
	559	18.6667	1.41331E-001	-2.00743E-005	0.00000E+000	1.41003E-001	0.00000E+000	9	...........	1467.43
	561	18.7333	1.39329E-001	-2.01904E-005	0.00000E+000	1.39004E-001	0.00000E+000	9	...........	1467.43
	563	18.8	1.37328E-001	-2.02423E-005	0.00000E+000	1.37004E-001	0.00000E+000	9	...........	1467.43
	565	18.8667	1.35328E-001	-2.03289E-005	0.00000E+000	1.35004E-001	0.00000E+000	9	...........	1467.43
	567	18.9333	1.33327E-001	-2.04460E-005	0.00000E+000	1.33004E-001	0.00000E+000	9	...........	1467.43
	569	19	1.31325E-001	-2.04929E-005	0.00000E+000	1.31004E-001	0.00000E+000	9	...........	1467.43
	571	19.0667	1.29328E-001	-2.05869E-005	0.00000E+000	1.29005E-001	0.00000E+000	9	...........	1467.57
	573	19.1333	1.27324E-001	-2.07017E-005	0.00000E+000	1.27005E-001	0.00000E+000	9	...........	1467.70
	575	19.2	1.25322E-001	-2.07556E-005	0.00000E+000	1.25005E-001	0.00000E+000	9	...........	1467.70
	577	19.2667	1.23323E-001	-2.08526E-005	0.00000E+000	1.23005E-001	0.00000E+000	9	...........	1467.70
	579	19.3333	1.21322E-001	-2.09626E-005	0.00000E+000	1.21005E-001	0.00000E+000	9	...........	1467.70
	581	19.4	1.19320E-001	-2.10188E-005	0.00000E+000	1.19006E-001	0.00000E+000	9	...........	1467.70
	583	19.4667	1.17318E-001	-2.11194E-005	0.00000E+000	1.17006E-001	0.00000E+000	9	...........	1467.70
	585	19.5333	1.15321E-001	-2.12300E-005	0.00000E+000	1.15006E-001	0.00000E+000	9	...........	1467.70
	587	19.6	1.13319E-001	-2.12836E-005	0.00000E+000	1.13006E-001	0.00000E+000	9	...........	1467.70
	589	19.6667	1.11303E-001	-2.13937E-005	0.00000E+000	1.10994E-001	0.00000E+000	9	...........	1467.70
	591	19.7333	1.09306E-001	-2.15057E-005	0.00000E+000	1.08994E-001	0.00000E+000	9	...........	1467.70
	593	19.8	1.07303E-001	-2.15581E-005	0.00000E+000	1.06994E-001	0.00000E+000	9	...........	1467.70
	595	19.8667	1.05302E-001	-2.16789E-005	0.00000E+000	1.04994E-001	0.00000E+000	9	...........	1467.70
	597	19.9333	1.03305E-001	-2.17882E-005	0.00000E+000	1.02995E-001	0.00000E+000	9	...........	1467.70
	599	20	1.01303E-001	-2.18511E-005	0.00000E+000	1.00995E-001	0.00000E+000	9	...........	1467.70
	600	20.0333	1.00302E-001	-2.19336E-005	0.00000E+000	9.99950E-002	0.00000E+000	9	...........	1467.70
CURVE4	TABLE
	Pt	T	Vf	Im	Vu	Sig	Ach	IERange	Over	Temp
	#	s	V vs. Ref.	A	V	V	V	#	bits	deg C
	601	20.0667	1.00295E-001	-2.05718E-005	0.00000E+000	9.99950E-002	0.00000E+000	9	...........	1467.56