File: input/CV_ECSA_#1_#7.DTA
EXPLAIN
TAG	CV
TITLE	LABEL	ECSA	Test Identifier
DATE	LABEL	17.7.2024	Date
TIME	LABEL	10:19:11	Time
NOTES	NOTES	1	Notes...

PSTAT	PSTAT	IFC1010-34090	Potentiostat
VINIT	POTEN	1.00000E-001	F	A Potential (V)
VLIMIT1	POTEN	2.00000E-001	F	A Potential (V)
VLIMIT2	POTEN	1.00000E-001	F	A Potential (V)
VFINAL	POTEN	1.00000E-001	F	A Potential (V)
SCANRATE	QUANT	6.99999E+001	A Real Number
STEPSIZE	QUANT	1.00000E+000	Step Size (mV)
CYCLES	IQUANT	3	Cycles (#)
IMODE	SELECTOR	1	I/E Range Mode
IRANGE	QUANT	3.00000E-001	Max Current (mA)
AREA	QUANT	1.00000E+000	Sample Area (cm^2)
EQDELAY	QUANT	0.00000E+000	Equil. Time (s)
IRCOMP	SELECTOR	0	IRComp
PFCOR	QUANT	5.00000E+001	PF Corr. (ohm)
SAMPLINGMODE	SELECTOR	2	Sampling Mode
EOC	QUANT	0.7205974	Open Circuit (V)
ELECTRODETYPE	SELECTOR	0	Electrode Type
STRIPPING	TOGGLE	F	Used for Stripping
SEQUENCER	TOGGLE	TRUE	Run as Sequence
PSTATMODEL	IQUANT	64	Pstat Model
PSTATSECTION	LABEL	IFC1010-34090	Pstat Section
PSTATSERIALNO	LABEL	34090	Pstat Serial Number
CTRLMODE	IQUANT	1	Control Mode
ELECTROMETER	IQUANT	0	RE=0 or CS=1
IESTAB	IQUANT	2	I/E Stability
CASPEED	IQUANT	4	Control Amp Speed
CONVENTION	IQUANT	1	Current Convention
ICHRANGE	IQUANT	2	Ich Range
ICHRANGEMODE	TOGGLE	F	Ich Auto Range
ICHOFFSETENABLE	TOGGLE	F	Ich Offset Enable
ICHOFFSET	QUANT	0	Ich Offset (V)
ICHFILTER	IQUANT	3	Ich Filter
VCHRANGE	IQUANT	1	Vch Range
VCHRANGEMODE	TOGGLE	F	Vch Auto Range
VCHOFFSETENABLE	TOGGLE	F	Vch Offset Enable
VCHOFFSET	QUANT	0	Vch Offset (V)
VCHFILTER	IQUANT	3	Vch Filter
IERANGELOWERLIMIT	IQUANT	4	I/E Range Lower Limit
IERANGEMODE	TOGGLE	F	I/E AutoRange
IERANGE	IQUANT	9	I/E Range
ACHSELECT	IQUANT	0	Ach Select
ACHRANGE	IQUANT	2	Ach Range
ACHOFFSETENABLE	TOGGLE	F	Ach Offset Enable
ACHOFFSET	QUANT	0	Ach Offset (V)
ACHFILTER	IQUANT	1	Ach Filter
SENSECABLEID	IQUANT	13	Sense Cable ID
PWRCABLEID	IQUANT	13	Power Cable ID
DCCALDATE	LABEL	1/30/2024	DC Calibration Date
ACCALDATE	LABEL	1/8/2024	AC Calibration Date
FRAMEWORKVERSION	LABEL	7.10.3	Framework Version
INSTRUMENTVERSION	LABEL	4.91	Instrument Version
COMMVERSION	LABEL	3.10	Communications Version
CPUPLDVERSION	LABEL	2.22	CPU PLD Version
CTRLPLDVERSION	LABEL	0.00	CTRL PLD Version
PSTATPLDVERSION	LABEL	0.00	PSTAT PLD Version
CURVE1	TABLE
	Pt	T	Vf	Im	Vu	Sig	Ach	IERange	Over	Temp
	#	s	V vs. Ref.	A	V	V	V	#	bits	deg C
	0	0.014283	1.00264E-001	-6.99819E-006	0.00000E+000	9.99950E-002	0.00000E+000	9	...........	1466.98
	3	0.057133	1.03250E-001	-3.69235E-006	0.00000E+000	1.02995E-001	0.00000E+000	9	...........	1466.98
	6	0.099983	1.06249E-001	-3.49992E-006	0.00000E+000	1.05994E-001	0.00000E+000	9	...........	1466.98
	9	0.142833	1.09250E-001	-3.40909E-006	0.00000E+000	1.08994E-001	0.00000E+000	9	...........	1466.98
	12	0.185683	1.12250E-001	-3.39471E-006	0.00000E+000	1.11994E-001	0.00000E+000	9	...........	1466.98
	15	0.228533	1.15253E-001	-3.37997E-006	0.00000E+000	1.14993E-001	0.00000E+000	9	...........	1466.98
	18	0.271383	1.18254E-001	-3.34719E-006	0.00000E+000	1.17993E-001	0.00000E+000	9	...........	1466.98
	21	0.314233	1.21256E-001	-3.30134E-006	0.00000E+000	1.20993E-001	0.00000E+000	9	...........	1466.98
	24	0.357083	1.24259E-001	-3.23990E-006	0.00000E+000	1.23993E-001	0.00000E+000	9	...........	1466.98
	27	0.399933	1.27260E-001	-3.15648E-006	0.00000E+000	1.26992E-001	0.00000E+000	9	...........	1466.98
	30	0.442783	1.30260E-001	-3.11289E-006	0.00000E+000	1.29992E-001	0.00000E+000	9	...........	1466.98
	33	0.485633	1.33262E-001	-3.12275E-006	0.00000E+000	1.32992E-001	0.00000E+000	9	...........	1466.98
	36	0.528483	1.36262E-001	-3.11644E-006	0.00000E+000	1.35991E-001	0.00000E+000	9	...........	1466.98
	39	0.571333	1.39261E-001	-3.10447E-006	0.00000E+000	1.38991E-001	0.00000E+000	9	...........	1466.98
	42	0.614183	1.42263E-001	-3.05430E-006	0.00000E+000	1.41991E-001	0.00000E+000	9	...........	1466.98
	45	0.657033	1.45264E-001	-2.97629E-006	0.00000E+000	1.44990E-001	0.00000E+000	9	...........	1466.98
	48	0.699883	1.48265E-001	-2.91400E-006	0.00000E+000	1.47990E-001	0.00000E+000	9	...........	1466.98
	51	0.742733	1.51263E-001	-2.88382E-006	0.00000E+000	1.50990E-001	0.00000E+000	9	...........	1466.98
	54	0.785583	1.54264E-001	-2.86901E-006	0.00000E+000	1.53989E-001	0.00000E+000	9	...........	1466.62
	57	0.828433	1.57263E-001	-2.87006E-006	0.00000E+000	1.56989E-001	0.00000E+000	9	...........	1466.62
	60	0.871283	1.60267E-001	-2.84881E-006	0.00000E+000	1.59989E-001	0.00000E+000	9	...........	1466.62
	63	0.914133	1.63267E-001	-2.80636E-006	0.00000E+000	1.62989E-001	0.00000E+000	9	...........	1466.62
	66	0.95698	1.66269E-001	-2.71752E-006	0.00000E+000	1.65988E-001	0.00000E+000	9	...........	1466.62
	69	0.99983	1.69269E-001	-2.65463E-006	0.00000E+000	1.68988E-001	0.00000E+000	9	...........	1466.62
	72	1.04268	1.72271E-001	-2.62466E-006	0.00000E+000	1.71988E-001	0.00000E+000	9	...........	1466.62
	75	1.08553	1.75270E-001	-2.61436E-006	0.00000E+000	1.74987E-001	0.00000E+000	9	...........	1466.62
	78	1.12838	1.78273E-001	-2.60310E-006	0.00000E+000	1.77987E-001	0.00000E+000	9	...........	1466.62
	81	1.17123	1.81273E-001	-2.58029E-006	0.00000E+000	1.80987E-001	0.00000E+000	9	...........	1466.62
	84	1.21408	1.84275E-001	-2.52096E-006	0.00000E+000	1.83986E-001	0.00000E+000	9	...........	1466.62
	87	1.25693	1.87276E-001	-2.42783E-006	0.00000E+000	1.86986E-001	0.00000E+000	9	...........	1466.62
	90	1.29978	1.90277E-001	-2.34857E-006	0.00000E+000	1.89986E-001	0.00000E+000	9	...........	1466.62
	93	1.34263	1.93278E-001	-2.32152E-006	0.00000E+000	1.92986E-001	0.00000E+000	9	...........	1466.62
	96	1.38548	1.96279E-001	-2.31306E-006	0.00000E+000	1.95985E-001	0.00000E+000	9	...........	1466.62
	99	1.42833	1.99280E-001	-2.29107E-006	0.00000E+000	1.98985E-001	0.00000E+000	9	...........	1466.62
	102	1.47118	1.98310E-001	-7.89880E-006	0.00000E+000	1.97985E-001	0.00000E+000	9	...........	1466.62
	105	1.51403	1.95307E-001	-8.16927E-006	0.00000E+000	1.94985E-001	0.00000E+000	9	...........	1466.62
	108	1.55688	1.92308E-001	-8.26576E-006	0.00000E+000	1.91986E-001	0.00000E+000	9	...........	1466.62
	111	1.59973	1.89305E-001	-8.34837E-006	0.00000E+000	1.88986E-001	0.00000E+000	9	...........	1466.62
	114	1.64258	1.86307E-001	-8.44388E-006	0.00000E+000	1.85986E-001	0.00000E+000	9	...........	1466.62
	117	1.68543	1.83308E-001	-8.53670E-006	0.00000E+000	1.82987E-001	0.00000E+000	9	...........	1466.62
	120	1.72828	1.80306E-001	-8.62835E-006	0.00000E+000	1.79987E-001	0.00000E+000	9	...........	1466.62
	123	1.77113	1.77304E-001	-8.69719E-006	0.00000E+000	1.76987E-001	0.00000E+000	9	...........	1466.71
	126	1.81398	1.74303E-001	-8.72378E-006	0.00000E+000	1.73987E-001	0.00000E+000	9	...........	1466.71
	129	1.85683	1.71300E-001	-8.72690E-006	0.00000E+000	1.70988E-001	0.00000E+000	9	...........	1466.71
	132	1.89968	1.68299E-001	-8.75014E-006	0.00000E+000	1.67988E-001	0.00000E+000	9	...........	1466.71
	135	1.94253	1.65297E-001	-8.81204E-006	0.00000E+000	1.64988E-001	0.00000E+000	9	...........	1466.71
	138	1.98538	1.62296E-001	-8.88600E-006	0.00000E+000	1.61989E-001	0.00000E+000	9	...........	1466.71
	141	2.02823	1.59297E-001	-8.95835E-006	0.00000E+000	1.58989E-001	0.00000E+000	9	...........	1466.71
	144	2.07108	1.56295E-001	-8.99936E-006	0.00000E+000	1.55989E-001	0.00000E+000	9	...........	1466.71
	147	2.11393	1.53295E-001	-9.02521E-006	0.00000E+000	1.52990E-001	0.00000E+000	9	...........	1466.71
	150	2.15678	1.50292E-001	-9.02513E-006	0.00000E+000	1.49990E-001	0.00000E+000	9	...........	1466.71
	153	2.19963	1.47299E-001	-9.04821E-006	0.00000E+000	1.46990E-001	0.00000E+000	9	...........	1466.71
	156	2.24248	1.44294E-001	-9.11269E-006	0.00000E+000	1.43991E-001	0.00000E+000	9	...........	1466.71
	159	2.28533	1.41297E-001	-9.19798E-006	0.00000E+000	1.40991E-001	0.00000E+000	9	...........	1466.71
	162	2.32818	1.38294E-001	-9.27330E-006	0.00000E+000	1.37991E-001	0.00000E+000	9	...........	1466.71
	165	2.37103	1.35294E-001	-9.32223E-006	0.00000E+000	1.34991E-001	0.00000E+000	9	...........	1466.71
	168	2.41388	1.32293E-001	-9.35524E-006	0.00000E+000	1.31992E-001	0.00000E+000	9	...........	1466.71
	171	2.45673	1.29291E-001	-9.36932E-006	0.00000E+000	1.28992E-001	0.00000E+000	9	...........	1466.71
	174	2.49958	1.26290E-001	-9.41863E-006	0.00000E+000	1.25992E-001	0.00000E+000	9	...........	1466.71
	177	2.54243	1.23289E-001	-9.49676E-006	0.00000E+000	1.22993E-001	0.00000E+000	9	...........	1466.71
	180	2.58528	1.20287E-001	-9.60880E-006	0.00000E+000	1.19993E-001	0.00000E+000	9	...........	1466.71
	183	2.62813	1.17285E-001	-9.70778E-006	0.00000E+000	1.16993E-001	0.00000E+000	9	...........	1466.71
	186	2.67098	1.14284E-001	-9.76953E-006	0.00000E+000	1.13994E-001	0.00000E+000	9	...........	1466.71
	189	2.71383	1.11283E-001	-9.81810E-006	0.00000E+000	1.10994E-001	0.00000E+000	9	...........	1466.71
	192	2.75668	1.08283E-001	-9.85763E-006	0.00000E+000	1.07994E-001	0.00000E+000	9	...........	1466.71
	195	2.79953	1.05281E-001	-9.93537E-006	0.00000E+000	1.04994E-001	0.00000E+000	9	...........	1466.71
	198	2.84238	1.02281E-001	-1.00560E-005	0.00000E+000	1.01995E-001	0.00000E+000	9	...........	1466.71
	200	2.87095	1.00280E-001	-1.01818E-005	0.00000E+000	9.99950E-002	0.00000E+000	9	...........	1466.71
CURVE2	TABLE
	Pt	T	Vf	Im	Vu	Sig	Ach	IERange	Over	Temp
	#	s	V vs. Ref.	A	V	V	V	#	bits	deg C
	201	2.88523	1.01248E-001	-4.42509E-006	0.00000E+000	1.00995E-001	0.00000E+000	9	...........	1466.71
	204	2.92808	1.04247E-001	-3.84322E-006	0.00000E+000	1.03995E-001	0.00000E+000	9	...........	1466.71
	207	2.97093	1.07249E-001	-3.68537E-006	0.00000E+000	1.06994E-001	0.00000E+000	9	...........	1466.71
	210	3.01378	1.10251E-001	-3.55349E-006	0.00000E+000	1.09994E-001	0.00000E+000	9	...........	1466.71
	213	3.05663	1.13252E-001	-3.43463E-006	0.00000E+000	1.12994E-001	0.00000E+000	9	...........	1466.71
	216	3.09948	1.16252E-001	-3.36118E-006	0.00000E+000	1.15993E-001	0.00000E+000	9	...........	1466.71
	219	3.14233	1.19256E-001	-3.33970E-006	0.00000E+000	1.18993E-001	0.00000E+000	9	...........	1466.71
	222	3.18518	1.22257E-001	-3.34130E-006	0.00000E+000	1.21993E-001	0.00000E+000	9	...........	1466.71
	225	3.22803	1.25256E-001	-3.32504E-006	0.00000E+000	1.24992E-001	0.00000E+000	9	...........	1466.71
	228	3.27088	1.28261E-001	-3.26688E-006	0.00000E+000	1.27992E-001	0.00000E+000	9	...........	1466.71
	231	3.31373	1.31259E-001	-3.20474E-006	0.00000E+000	1.30992E-001	0.00000E+000	9	...........	1466.71
	234	3.35658	1.34263E-001	-3.12697E-006	0.00000E+000	1.33992E-001	0.00000E+000	9	...........	1466.71
	237	3.39943	1.37263E-001	-3.08896E-006	0.00000E+000	1.36991E-001	0.00000E+000	9	...........	1466.71
	240	3.44228	1.40264E-001	-3.08174E-006	0.00000E+000	1.39991E-001	0.00000E+000	9	...........	1466.71
	243	3.48513	1.43261E-001	-3.07991E-006	0.00000E+000	1.42991E-001	0.00000E+000	9	...........	1466.71
	246	3.52798	1.46265E-001	-3.07052E-006	0.00000E+000	1.45990E-001	0.00000E+000	9	...........	1466.71
	249	3.57083	1.49264E-001	-3.02038E-006	0.00000E+000	1.48990E-001	0.00000E+000	9	...........	1466.71
	252	3.61368	1.52260E-001	-2.95002E-006	0.00000E+000	1.51990E-001	0.00000E+000	9	...........	1466.71
	255	3.65653	1.55263E-001	-2.86792E-006	0.00000E+000	1.54989E-001	0.00000E+000	9	...........	1466.71
	258	3.69938	1.58262E-001	-2.83521E-006	0.00000E+000	1.57989E-001	0.00000E+000	9	...........	1466.71
	261	3.74223	1.61266E-001	-2.82577E-006	0.00000E+000	1.60989E-001	0.00000E+000	9	...........	1466.71
	264	3.78508	1.64268E-001	-2.82149E-006	0.00000E+000	1.63988E-001	0.00000E+000	9	...........	1466.62
	267	3.82793	1.67269E-001	-2.78453E-006	0.00000E+000	1.66988E-001	0.00000E+000	9	...........	1466.62
	270	3.87078	1.70272E-001	-2.73943E-006	0.00000E+000	1.69988E-001	0.00000E+000	9	...........	1466.62
	273	3.91363	1.73272E-001	-2.66910E-006	0.00000E+000	1.72988E-001	0.00000E+000	9	...........	1466.62
	276	3.95648	1.76271E-001	-2.58844E-006	0.00000E+000	1.75987E-001	0.00000E+000	9	...........	1466.62
	279	3.99933	1.79275E-001	-2.55293E-006	0.00000E+000	1.78987E-001	0.00000E+000	9	...........	1466.62
	282	4.04218	1.82275E-001	-2.54029E-006	0.00000E+000	1.81987E-001	0.00000E+000	9	...........	1466.62
	285	4.08503	1.85276E-001	-2.52575E-006	0.00000E+000	1.84986E-001	0.00000E+000	9	...........	1466.62
	288	4.12788	1.88278E-001	-2.50225E-006	0.00000E+000	1.87986E-001	0.00000E+000	9	...........	1466.62
	291	4.17073	1.91280E-001	-2.44248E-006	0.00000E+000	1.90986E-001	0.00000E+000	9	...........	1466.62
	294	4.21358	1.94278E-001	-2.36206E-006	0.00000E+000	1.93985E-001	0.00000E+000	9	...........	1466.62
	297	4.25643	1.97279E-001	-2.27415E-006	0.00000E+000	1.96985E-001	0.00000E+000	9	...........	1466.62
	300	4.29928	2.00278E-001	-2.23482E-006	0.00000E+000	1.99985E-001	0.00000E+000	9	...........	1466.62
	303	4.34213	1.97311E-001	-8.00371E-006	0.00000E+000	1.96985E-001	0.00000E+000	9	...........	1466.62
	306	4.38498	1.94308E-001	-8.24549E-006	0.00000E+000	1.93985E-001	0.00000E+000	9	...........	1466.62
	309	4.42783	1.91308E-001	-8.38836E-006	0.00000E+000	1.90986E-001	0.00000E+000	9	...........	1466.62
	312	4.47068	1.88309E-001	-8.46044E-006	0.00000E+000	1.87986E-001	0.00000E+000	9	...........	1466.62
	315	4.51353	1.85307E-001	-8.50348E-006	0.00000E+000	1.84986E-001	0.00000E+000	9	...........	1466.62
	318	4.55638	1.82303E-001	-8.53214E-006	0.00000E+000	1.81987E-001	0.00000E+000	9	...........	1466.62
	321	4.59923	1.79307E-001	-8.59521E-006	0.00000E+000	1.78987E-001	0.00000E+000	9	...........	1466.62
	324	4.64208	1.76303E-001	-8.68074E-006	0.00000E+000	1.75987E-001	0.00000E+000	9	...........	1466.62
	327	4.68493	1.73301E-001	-8.75142E-006	0.00000E+000	1.72988E-001	0.00000E+000	9	...........	1466.62
	330	4.72778	1.70303E-001	-8.81898E-006	0.00000E+000	1.69988E-001	0.00000E+000	9	...........	1466.62
	333	4.77063	1.67300E-001	-8.84241E-006	0.00000E+000	1.66988E-001	0.00000E+000	9	...........	1466.98
	336	4.81348	1.64298E-001	-8.84756E-006	0.00000E+000	1.63988E-001	0.00000E+000	9	...........	1466.98
	339	4.85633	1.61298E-001	-8.86003E-006	0.00000E+000	1.60989E-001	0.00000E+000	9	...........	1466.98
	342	4.89918	1.58298E-001	-8.92077E-006	0.00000E+000	1.57989E-001	0.00000E+000	9	...........	1466.98
	345	4.94203	1.55297E-001	-8.98751E-006	0.00000E+000	1.54989E-001	0.00000E+000	9	...........	1466.98
	348	4.98488	1.52294E-001	-9.05772E-006	0.00000E+000	1.51990E-001	0.00000E+000	9	...........	1466.98
	351	5.02773	1.49297E-001	-9.10469E-006	0.00000E+000	1.48990E-001	0.00000E+000	9	...........	1466.98
	354	5.07058	1.46295E-001	-9.14777E-006	0.00000E+000	1.45990E-001	0.00000E+000	9	...........	1466.98
	357	5.11343	1.43292E-001	-9.13635E-006	0.00000E+000	1.42991E-001	0.00000E+000	9	...........	1466.98
	360	5.15628	1.40293E-001	-9.16446E-006	0.00000E+000	1.39991E-001	0.00000E+000	9	...........	1466.98
	363	5.19913	1.37292E-001	-9.24582E-006	0.00000E+000	1.36991E-001	0.00000E+000	9	...........	1466.98
	366	5.24198	1.34294E-001	-9.32659E-006	0.00000E+000	1.33992E-001	0.00000E+000	9	...........	1466.98
	369	5.28483	1.31293E-001	-9.40565E-006	0.00000E+000	1.30992E-001	0.00000E+000	9	...........	1466.98
	372	5.32768	1.28293E-001	-9.47099E-006	0.00000E+000	1.27992E-001	0.00000E+000	9	...........	1466.98
	375	5.37053	1.25288E-001	-9.50580E-006	0.00000E+000	1.24992E-001	0.00000E+000	9	...........	1466.98
	378	5.41338	1.22289E-001	-9.52307E-006	0.00000E+000	1.21993E-001	0.00000E+000	9	...........	1466.98
	381	5.45623	1.19288E-001	-9.56736E-006	0.00000E+000	1.18993E-001	0.00000E+000	9	...........	1466.98
	384	5.49908	1.16285E-001	-9.66661E-006	0.00000E+000	1.15993E-001	0.00000E+000	9	...........	1466.98
	387	5.54193	1.13285E-001	-9.78060E-006	0.00000E+000	1.12994E-001	0.00000E+000	9	...........	1466.98
	390	5.58478	1.10286E-001	-9.88063E-006	0.00000E+000	1.09994E-001	0.00000E+000	9	...........	1466.98
	393	5.62763	1.07280E-001	-9.96889E-006	0.00000E+000	1.06994E-001	0.00000E+000	9	...........	1466.98
	396	5.67048	1.04280E-001	-1.00303E-005	0.00000E+000	1.03995E-001	0.00000E+000	9	...........	1466.98
	399	5.71333	1.01281E-001	-1.00879E-005	0.00000E+000	1.00995E-001	0.00000E+000	9	...........	1466.98
	400	5.72762	1.00281E-001	-1.01904E-005	0.00000E+000	9.99950E-002	0.00000E+000	9	...........	1466.98
CURVE3	TABLE
	Pt	T	Vf	Im	Vu	Sig	Ach	IERange	Over	Temp
	#	s	V vs. Ref.	A	V	V	V	#	bits	deg C
	401	5.7419	1.01249E-001	-4.43480E-006	0.00000E+000	1.00995E-001	0.00000E+000	9	...........	1466.95
	404	5.78475	1.04249E-001	-3.86489E-006	0.00000E+000	1.03995E-001	0.00000E+000	9	...........	1466.71
	407	5.8276	1.07251E-001	-3.69473E-006	0.00000E+000	1.06994E-001	0.00000E+000	9	...........	1466.71
	410	5.87045	1.10256E-001	-3.56694E-006	0.00000E+000	1.09994E-001	0.00000E+000	9	...........	1466.71
	413	5.9133	1.13255E-001	-3.45798E-006	0.00000E+000	1.12994E-001	0.00000E+000	9	...........	1466.71
	416	5.95615	1.16256E-001	-3.38523E-006	0.00000E+000	1.15993E-001	0.00000E+000	9	...........	1466.71
	419	5.999	1.19257E-001	-3.36344E-006	0.00000E+000	1.18993E-001	0.00000E+000	9	...........	1466.71
	422	6.04185	1.22257E-001	-3.35186E-006	0.00000E+000	1.21993E-001	0.00000E+000	9	...........	1466.71
	425	6.0847	1.25256E-001	-3.33241E-006	0.00000E+000	1.24992E-001	0.00000E+000	9	...........	1466.71
	428	6.12755	1.28262E-001	-3.28391E-006	0.00000E+000	1.27992E-001	0.00000E+000	9	...........	1466.71
	431	6.1704	1.31259E-001	-3.23008E-006	0.00000E+000	1.30992E-001	0.00000E+000	9	...........	1466.71
	434	6.21325	1.34263E-001	-3.15379E-006	0.00000E+000	1.33992E-001	0.00000E+000	9	...........	1466.71
	437	6.2561	1.37260E-001	-3.10899E-006	0.00000E+000	1.36991E-001	0.00000E+000	9	...........	1466.71
	440	6.29895	1.40263E-001	-3.09469E-006	0.00000E+000	1.39991E-001	0.00000E+000	9	...........	1466.71
	443	6.3418	1.43261E-001	-3.09979E-006	0.00000E+000	1.42991E-001	0.00000E+000	9	...........	1466.71
	446	6.38465	1.46265E-001	-3.07508E-006	0.00000E+000	1.45990E-001	0.00000E+000	9	...........	1466.71
	449	6.4275	1.49265E-001	-3.03543E-006	0.00000E+000	1.48990E-001	0.00000E+000	9	...........	1466.71
	452	6.47035	1.52262E-001	-2.96627E-006	0.00000E+000	1.51990E-001	0.00000E+000	9	...........	1466.71
	455	6.5132	1.55264E-001	-2.88289E-006	0.00000E+000	1.54989E-001	0.00000E+000	9	...........	1466.71
	458	6.55605	1.58264E-001	-2.83264E-006	0.00000E+000	1.57989E-001	0.00000E+000	9	...........	1466.71
	461	6.5989	1.61267E-001	-2.82180E-006	0.00000E+000	1.60989E-001	0.00000E+000	9	...........	1466.71
	464	6.64175	1.64268E-001	-2.83408E-006	0.00000E+000	1.63988E-001	0.00000E+000	9	...........	1466.71
	467	6.6846	1.67267E-001	-2.80675E-006	0.00000E+000	1.66988E-001	0.00000E+000	9	...........	1466.71
	470	6.72745	1.70272E-001	-2.75537E-006	0.00000E+000	1.69988E-001	0.00000E+000	9	...........	1466.71
	473	6.7703	1.73270E-001	-2.68473E-006	0.00000E+000	1.72988E-001	0.00000E+000	9	...........	1466.62
	476	6.81315	1.76270E-001	-2.60536E-006	0.00000E+000	1.75987E-001	0.00000E+000	9	...........	1466.62
	479	6.856	1.79276E-001	-2.56314E-006	0.00000E+000	1.78987E-001	0.00000E+000	9	...........	1466.62
	482	6.89885	1.82275E-001	-2.55554E-006	0.00000E+000	1.81987E-001	0.00000E+000	9	...........	1466.62
	485	6.9417	1.85274E-001	-2.53441E-006	0.00000E+000	1.84986E-001	0.00000E+000	9	...........	1466.62
	488	6.98455	1.88277E-001	-2.51343E-006	0.00000E+000	1.87986E-001	0.00000E+000	9	...........	1466.62
	491	7.0274	1.91279E-001	-2.45336E-006	0.00000E+000	1.90986E-001	0.00000E+000	9	...........	1466.62
	494	7.07025	1.94277E-001	-2.38101E-006	0.00000E+000	1.93985E-001	0.00000E+000	9	...........	1466.62
	497	7.1131	1.97279E-001	-2.29169E-006	0.00000E+000	1.96985E-001	0.00000E+000	9	...........	1466.62
	500	7.15595	2.00280E-001	-2.24741E-006	0.00000E+000	1.99985E-001	0.00000E+000	9	...........	1466.62
	503	7.1988	1.97310E-001	-8.00032E-006	0.00000E+000	1.96985E-001	0.00000E+000	9	...........	1466.62
	506	7.24165	1.94309E-001	-8.24132E-006	0.00000E+000	1.93985E-001	0.00000E+000	9	...........	1466.62
	509	7.2845	1.91311E-001	-8.38641E-006	0.00000E+000	1.90986E-001	0.00000E+000	9	...........	1466.62
	512	7.32735	1.88308E-001	-8.46532E-006	0.00000E+000	1.87986E-001	0.00000E+000	9	...........	1466.62
	515	7.3702	1.85309E-001	-8.50407E-006	0.00000E+000	1.84986E-001	0.00000E+000	9	...........	1466.62
	518	7.41305	1.82309E-001	-8.53214E-006	0.00000E+000	1.81987E-001	0.00000E+000	9	...........	1466.62
	521	7.4559	1.79309E-001	-8.59954E-006	0.00000E+000	1.78987E-001	0.00000E+000	9	...........	1466.62
	524	7.49875	1.76304E-001	-8.67189E-006	0.00000E+000	1.75987E-001	0.00000E+000	9	...........	1466.62
	527	7.5416	1.73304E-001	-8.75349E-006	0.00000E+000	1.72988E-001	0.00000E+000	9	...........	1466.62
	530	7.58445	1.70302E-001	-8.82249E-006	0.00000E+000	1.69988E-001	0.00000E+000	9	...........	1466.62
	533	7.6273	1.67301E-001	-8.84545E-006	0.00000E+000	1.66988E-001	0.00000E+000	9	...........	1466.62
	536	7.67015	1.64301E-001	-8.85231E-006	0.00000E+000	1.63988E-001	0.00000E+000	9	...........	1466.62
	539	7.713	1.61298E-001	-8.86919E-006	0.00000E+000	1.60989E-001	0.00000E+000	9	...........	1466.62
	542	7.75585	1.58296E-001	-8.92506E-006	0.00000E+000	1.57989E-001	0.00000E+000	9	...........	1466.80
	545	7.7987	1.55295E-001	-8.99558E-006	0.00000E+000	1.54989E-001	0.00000E+000	9	...........	1466.80
	548	7.84155	1.52294E-001	-9.06341E-006	0.00000E+000	1.51990E-001	0.00000E+000	9	...........	1466.80
	551	7.8844	1.49300E-001	-9.11783E-006	0.00000E+000	1.48990E-001	0.00000E+000	9	...........	1466.80
	554	7.92725	1.46299E-001	-9.15725E-006	0.00000E+000	1.45990E-001	0.00000E+000	9	...........	1466.80
	557	7.9701	1.43294E-001	-9.15763E-006	0.00000E+000	1.42991E-001	0.00000E+000	9	...........	1466.80
	560	8.01295	1.40296E-001	-9.17120E-006	0.00000E+000	1.39991E-001	0.00000E+000	9	...........	1466.80
	563	8.0558	1.37293E-001	-9.24929E-006	0.00000E+000	1.36991E-001	0.00000E+000	9	...........	1466.80
	566	8.09865	1.34294E-001	-9.32289E-006	0.00000E+000	1.33992E-001	0.00000E+000	9	...........	1466.80
	569	8.1415	1.31291E-001	-9.40522E-006	0.00000E+000	1.30992E-001	0.00000E+000	9	...........	1466.80
	572	8.18435	1.28293E-001	-9.46997E-006	0.00000E+000	1.27992E-001	0.00000E+000	9	...........	1466.80
	575	8.2272	1.25287E-001	-9.51134E-006	0.00000E+000	1.24992E-001	0.00000E+000	9	...........	1466.80
	578	8.27005	1.22288E-001	-9.52791E-006	0.00000E+000	1.21993E-001	0.00000E+000	9	...........	1466.80
	581	8.3129	1.19286E-001	-9.57527E-006	0.00000E+000	1.18993E-001	0.00000E+000	9	...........	1466.80
	584	8.35575	1.16285E-001	-9.65250E-006	0.00000E+000	1.15993E-001	0.00000E+000	9	...........	1466.80
	587	8.3986	1.13285E-001	-9.76325E-006	0.00000E+000	1.12994E-001	0.00000E+000	9	...........	1466.80
	590	8.44145	1.10284E-001	-9.87966E-006	0.00000E+000	1.09994E-001	0.00000E+000	9	...........	1466.80
	593	8.4843	1.07282E-001	-9.96581E-006	0.00000E+000	1.06994E-001	0.00000E+000	9	...........	1466.80
	596	8.52715	1.04281E-001	-1.00402E-005	0.00000E+000	1.03995E-001	0.00000E+000	9	...........	1466.80
	599	8.57	1.01279E-001	-1.00956E-005	0.00000E+000	1.00995E-001	0.00000E+000	9	...........	1466.80
	600	8.58428	1.00280E-001	-1.02000E-005	0.00000E+000	9.99950E-002	0.00000E+000	9	...........	1466.80
CURVE4	TABLE
	Pt	T	Vf	Im	Vu	Sig	Ach	IERange	Over	Temp
	#	s	V vs. Ref.	A	V	V	V	#	bits	deg C
	601	8.59857	1.00265E-001	-7.30921E-006	0.00000E+000	9.99950E-002	0.00000E+000	9	...........	1466.80