File: input/CV_ECSA_#1_#5.DTA
EXPLAIN
TAG	CV
TITLE	LABEL	ECSA	Test Identifier
DATE	LABEL	17.7.2024	Date
TIME	LABEL	10:18:49	Time
NOTES	NOTES	1	Notes...

PSTAT	PSTAT	IFC1010-34090	Potentiostat
VINIT	POTEN	1.00000E-001	F	A Potential (V)
VLIMIT1	POTEN	2.00000E-001	F	A Potential (V)
VLIMIT2	POTEN	1.00000E-001	F	A Potential (V)
VFINAL	POTEN	1.00000E-001	F	A Potential (V)
SCANRATE	QUANT	4.99999E+001	A Real Number
STEPSIZE	QUANT	1.00000E+000	Step Size (mV)
CYCLES	IQUANT	3	Cycles (#)
IMODE	SELECTOR	1	I/E Range Mode
IRANGE	QUANT	3.00000E-001	Max Current (mA)
AREA	QUANT	1.00000E+000	Sample Area (cm^2)
EQDELAY	QUANT	0.00000E+000	Equil. Time (s)
IRCOMP	SELECTOR	0	IRComp
PFCOR	QUANT	5.00000E+001	PF Corr. (ohm)
SAMPLINGMODE	SELECTOR	2	Sampling Mode
EOC	QUANT	0.7205974	Open Circuit (V)
ELECTRODETYPE	SELECTOR	0	Electrode Type
STRIPPING	TOGGLE	F	Used for Stripping
SEQUENCER	TOGGLE	TRUE	Run as Sequence
PSTATMODEL	IQUANT	64	Pstat Model
PSTATSECTION	LABEL	IFC1010-34090	Pstat Section
PSTATSERIALNO	LABEL	34090	Pstat Serial Number
CTRLMODE	IQUANT	1	Control Mode
ELECTROMETER	IQUANT	0	RE=0 or CS=1
IESTAB	IQUANT	2	I/E Stability
CASPEED	IQUANT	4	Control Amp Speed
CONVENTION	IQUANT	1	Current Convention
ICHRANGE	IQUANT	2	Ich Range
ICHRANGEMODE	TOGGLE	F	Ich Auto Range
ICHOFFSETENABLE	TOGGLE	F	Ich Offset Enable
ICHOFFSET	QUANT	0	Ich Offset (V)
ICHFILTER	IQUANT	3	Ich Filter
VCHRANGE	IQUANT	1	Vch Range
VCHRANGEMODE	TOGGLE	F	Vch Auto Range
VCHOFFSETENABLE	TOGGLE	F	Vch Offset Enable
VCHOFFSET	QUANT	0	Vch Offset (V)
VCHFILTER	IQUANT	3	Vch Filter
IERANGELOWERLIMIT	IQUANT	4	I/E Range Lower Limit
IERANGEMODE	TOGGLE	F	I/E AutoRange
IERANGE	IQUANT	9	I/E Range
ACHSELECT	IQUANT	0	Ach Select
ACHRANGE	IQUANT	2	Ach Range
ACHOFFSETENABLE	TOGGLE	F	Ach Offset Enable
ACHOFFSET	QUANT	0	Ach Offset (V)
ACHFILTER	IQUANT	1	Ach Filter
SENSECABLEID	IQUANT	13	Sense Cable ID
PWRCABLEID	IQUANT	13	Power Cable ID
DCCALDATE	LABEL	1/30/2024	DC Calibration Date
ACCALDATE	LABEL	1/8/2024	AC Calibration Date
FRAMEWORKVERSION	LABEL	7.10.3	Framework Version
INSTRUMENTVERSION	LABEL	4.91	Instrument Version
COMMVERSION	LABEL	3.10	Communications Version
CPUPLDVERSION	LABEL	2.22	CPU PLD Version
CTRLPLDVERSION	LABEL	0.00	CTRL PLD Version
PSTATPLDVERSION	LABEL	0.00	PSTAT PLD Version
CURVE1	TABLE
	Pt	T	Vf	Im	Vu	Sig	Ach	IERange	Over	Temp
	#	s	V vs. Ref.	A	V	V	V	#	bits	deg C
	0	0.02	1.00269E-001	-6.79384E-006	0.00000E+000	9.99950E-002	0.00000E+000	9	...........	1466.71
	2	0.06	1.02258E-001	-4.42153E-006	0.00000E+000	1.01995E-001	0.00000E+000	9	...........	1466.71
	4	0.1	1.04258E-001	-4.30537E-006	0.00000E+000	1.03995E-001	0.00000E+000	9	...........	1466.71
	6	0.14	1.06260E-001	-4.23592E-006	0.00000E+000	1.05994E-001	0.00000E+000	9	...........	1466.71
	8	0.18	1.08260E-001	-4.19285E-006	0.00000E+000	1.07994E-001	0.00000E+000	9	...........	1466.71
	10	0.22	1.10261E-001	-4.15120E-006	0.00000E+000	1.09994E-001	0.00000E+000	9	...........	1466.71
	12	0.26	1.12259E-001	-4.11790E-006	0.00000E+000	1.11994E-001	0.00000E+000	9	...........	1466.71
	14	0.3	1.14274E-001	-4.07478E-006	0.00000E+000	1.14006E-001	0.00000E+000	9	...........	1466.71
	16	0.34	1.16274E-001	-4.05831E-006	0.00000E+000	1.16006E-001	0.00000E+000	9	...........	1466.71
	18	0.38	1.18275E-001	-4.03263E-006	0.00000E+000	1.18006E-001	0.00000E+000	9	...........	1466.71
	20	0.42	1.20276E-001	-4.00850E-006	0.00000E+000	1.20005E-001	0.00000E+000	9	...........	1466.71
	22	0.46	1.22278E-001	-3.98202E-006	0.00000E+000	1.22005E-001	0.00000E+000	9	...........	1466.71
	24	0.5	1.24279E-001	-3.96351E-006	0.00000E+000	1.24005E-001	0.00000E+000	9	...........	1466.71
	26	0.54	1.26280E-001	-3.93936E-006	0.00000E+000	1.26005E-001	0.00000E+000	9	...........	1466.71
	28	0.58	1.28282E-001	-3.91210E-006	0.00000E+000	1.28005E-001	0.00000E+000	9	...........	1466.71
	30	0.62	1.30280E-001	-3.89788E-006	0.00000E+000	1.30004E-001	0.00000E+000	9	...........	1466.71
	32	0.66	1.32283E-001	-3.85918E-006	0.00000E+000	1.32004E-001	0.00000E+000	9	...........	1466.71
	34	0.7	1.34284E-001	-3.84360E-006	0.00000E+000	1.34004E-001	0.00000E+000	9	...........	1466.71
	36	0.74	1.36285E-001	-3.82501E-006	0.00000E+000	1.36004E-001	0.00000E+000	9	...........	1466.71
	38	0.78	1.38286E-001	-3.80434E-006	0.00000E+000	1.38004E-001	0.00000E+000	9	...........	1466.71
	40	0.82	1.40286E-001	-3.78206E-006	0.00000E+000	1.40003E-001	0.00000E+000	9	...........	1466.71
	42	0.86	1.42286E-001	-3.76659E-006	0.00000E+000	1.42003E-001	0.00000E+000	9	...........	1466.71
	44	0.9	1.44284E-001	-3.74277E-006	0.00000E+000	1.44003E-001	0.00000E+000	9	...........	1466.71
	46	0.94	1.46287E-001	-3.72101E-006	0.00000E+000	1.46003E-001	0.00000E+000	9	...........	1466.71
	48	0.98	1.48286E-001	-3.69942E-006	0.00000E+000	1.48003E-001	0.00000E+000	9	...........	1466.71
	50	1.02	1.50285E-001	-3.69010E-006	0.00000E+000	1.50002E-001	0.00000E+000	9	...........	1466.71
	52	1.06	1.52283E-001	-3.65747E-006	0.00000E+000	1.52002E-001	0.00000E+000	9	...........	1466.71
	54	1.1	1.54286E-001	-3.63451E-006	0.00000E+000	1.54002E-001	0.00000E+000	9	...........	1466.71
	56	1.14	1.56286E-001	-3.61621E-006	0.00000E+000	1.56002E-001	0.00000E+000	9	...........	1466.71
	58	1.18	1.58285E-001	-3.59080E-006	0.00000E+000	1.58002E-001	0.00000E+000	9	...........	1466.71
	60	1.22	1.60289E-001	-3.57200E-006	0.00000E+000	1.60001E-001	0.00000E+000	9	...........	1466.71
	62	1.26	1.62289E-001	-3.55789E-006	0.00000E+000	1.62001E-001	0.00000E+000	9	...........	1466.71
	64	1.3	1.64290E-001	-3.53029E-006	0.00000E+000	1.64001E-001	0.00000E+000	9	...........	1466.71
	66	1.34	1.66291E-001	-3.50848E-006	0.00000E+000	1.66001E-001	0.00000E+000	9	...........	1466.71
	68	1.38	1.68288E-001	-3.48558E-006	0.00000E+000	1.68001E-001	0.00000E+000	9	...........	1466.71
	70	1.42	1.70293E-001	-3.45929E-006	0.00000E+000	1.70000E-001	0.00000E+000	9	...........	1466.71
	72	1.46	1.72293E-001	-3.44744E-006	0.00000E+000	1.72000E-001	0.00000E+000	9	...........	1466.71
	74	1.5	1.74294E-001	-3.42292E-006	0.00000E+000	1.74000E-001	0.00000E+000	9	...........	1466.71
	76	1.54	1.76291E-001	-3.40030E-006	0.00000E+000	1.76000E-001	0.00000E+000	9	...........	1466.71
	78	1.58	1.78293E-001	-3.38292E-006	0.00000E+000	1.78000E-001	0.00000E+000	9	...........	1466.71
	80	1.62	1.80294E-001	-3.35982E-006	0.00000E+000	1.79999E-001	0.00000E+000	9	...........	1466.71
	82	1.66	1.82295E-001	-3.33717E-006	0.00000E+000	1.81999E-001	0.00000E+000	9	...........	1466.71
	84	1.7	1.84295E-001	-3.30821E-006	0.00000E+000	1.83999E-001	0.00000E+000	9	...........	1466.71
	86	1.74	1.86297E-001	-3.28267E-006	0.00000E+000	1.85999E-001	0.00000E+000	9	...........	1466.71
	88	1.78	1.88296E-001	-3.26269E-006	0.00000E+000	1.87999E-001	0.00000E+000	9	...........	1466.71
	90	1.82	1.90300E-001	-3.23342E-006	0.00000E+000	1.89998E-001	0.00000E+000	9	...........	1466.71
	92	1.86	1.92299E-001	-3.20552E-006	0.00000E+000	1.91998E-001	0.00000E+000	9	...........	1466.71
	94	1.9	1.94297E-001	-3.18730E-006	0.00000E+000	1.93998E-001	0.00000E+000	9	...........	1466.71
	96	1.94	1.96298E-001	-3.15352E-006	0.00000E+000	1.95998E-001	0.00000E+000	9	...........	1466.71
	98	1.98	1.98300E-001	-3.13134E-006	0.00000E+000	1.97998E-001	0.00000E+000	9	...........	1466.71
	100	2.02	2.00302E-001	-3.10088E-006	0.00000E+000	1.99997E-001	0.00000E+000	9	...........	1466.71
	102	2.06	1.98322E-001	-7.21265E-006	0.00000E+000	1.97998E-001	0.00000E+000	9	...........	1466.71
	104	2.1	1.96323E-001	-7.37372E-006	0.00000E+000	1.95998E-001	0.00000E+000	9	...........	1466.71
	106	2.14	1.94320E-001	-7.47432E-006	0.00000E+000	1.93998E-001	0.00000E+000	9	...........	1466.71
	108	2.18	1.92322E-001	-7.54930E-006	0.00000E+000	1.91998E-001	0.00000E+000	9	...........	1466.71
	110	2.22	1.90322E-001	-7.61135E-006	0.00000E+000	1.89998E-001	0.00000E+000	9	...........	1466.71
	112	2.26	1.88320E-001	-7.66137E-006	0.00000E+000	1.87999E-001	0.00000E+000	9	...........	1466.71
	114	2.3	1.86319E-001	-7.69993E-006	0.00000E+000	1.85999E-001	0.00000E+000	9	...........	1466.71
	116	2.34	1.84318E-001	-7.74807E-006	0.00000E+000	1.83999E-001	0.00000E+000	9	...........	1466.71
	118	2.38	1.82317E-001	-7.78774E-006	0.00000E+000	1.81999E-001	0.00000E+000	9	...........	1466.71
	120	2.42	1.80316E-001	-7.81826E-006	0.00000E+000	1.79999E-001	0.00000E+000	9	...........	1466.71
	122	2.46	1.78315E-001	-7.85229E-006	0.00000E+000	1.78000E-001	0.00000E+000	9	...........	1466.71
	124	2.5	1.76313E-001	-7.89002E-006	0.00000E+000	1.76000E-001	0.00000E+000	9	...........	1466.71
	126	2.54	1.74315E-001	-7.91367E-006	0.00000E+000	1.74000E-001	0.00000E+000	9	...........	1466.71
	128	2.58	1.72314E-001	-7.94021E-006	0.00000E+000	1.72000E-001	0.00000E+000	9	...........	1466.71
	130	2.62	1.70314E-001	-7.96848E-006	0.00000E+000	1.70000E-001	0.00000E+000	9	...........	1466.71
	132	2.66	1.68310E-001	-7.99321E-006	0.00000E+000	1.68001E-001	0.00000E+000	9	...........	1466.71
	134	2.7	1.66312E-001	-8.02276E-006	0.00000E+000	1.66001E-001	0.00000E+000	9	...........	1466.71
	136	2.74	1.64311E-001	-8.04546E-006	0.00000E+000	1.64001E-001	0.00000E+000	9	...........	1466.71
	138	2.78	1.62309E-001	-8.07309E-006	0.00000E+000	1.62001E-001	0.00000E+000	9	...........	1466.71
	140	2.82	1.60312E-001	-8.10122E-006	0.00000E+000	1.60001E-001	0.00000E+000	9	...........	1466.71
	142	2.86	1.58309E-001	-8.12008E-006	0.00000E+000	1.58002E-001	0.00000E+000	9	...........	1466.71
	144	2.9	1.56309E-001	-8.14966E-006	0.00000E+000	1.56002E-001	0.00000E+000	9	...........	1466.71
	146	2.94	1.54308E-001	-8.17509E-006	0.00000E+000	1.54002E-001	0.00000E+000	9	...........	1466.71
	148	2.98	1.52306E-001	-8.20205E-006	0.00000E+000	1.52002E-001	0.00000E+000	9	...........	1466.75
	150	3.02	1.50306E-001	-8.23056E-006	0.00000E+000	1.50002E-001	0.00000E+000	9	...........	1466.89
	152	3.06	1.48307E-001	-8.25307E-006	0.00000E+000	1.48003E-001	0.00000E+000	9	...........	1466.89
	154	3.1	1.46307E-001	-8.28896E-006	0.00000E+000	1.46003E-001	0.00000E+000	9	...........	1466.89
	156	3.14	1.44304E-001	-8.31476E-006	0.00000E+000	1.44003E-001	0.00000E+000	9	...........	1466.89
	158	3.18	1.42307E-001	-8.34330E-006	0.00000E+000	1.42003E-001	0.00000E+000	9	...........	1466.89
	160	3.22	1.40307E-001	-8.37416E-006	0.00000E+000	1.40003E-001	0.00000E+000	9	...........	1466.89
	162	3.26	1.38309E-001	-8.39099E-006	0.00000E+000	1.38004E-001	0.00000E+000	9	...........	1466.89
	164	3.3	1.36307E-001	-8.42009E-006	0.00000E+000	1.36004E-001	0.00000E+000	9	...........	1466.89
	166	3.34	1.34306E-001	-8.45971E-006	0.00000E+000	1.34004E-001	0.00000E+000	9	...........	1466.89
	168	3.38	1.32306E-001	-8.48703E-006	0.00000E+000	1.32004E-001	0.00000E+000	9	...........	1466.89
	170	3.42	1.30303E-001	-8.51427E-006	0.00000E+000	1.30004E-001	0.00000E+000	9	...........	1466.89
	172	3.46	1.28306E-001	-8.53778E-006	0.00000E+000	1.28005E-001	0.00000E+000	9	...........	1466.89
	174	3.5	1.26304E-001	-8.57576E-006	0.00000E+000	1.26005E-001	0.00000E+000	9	...........	1466.89
	176	3.54	1.24302E-001	-8.61073E-006	0.00000E+000	1.24005E-001	0.00000E+000	9	...........	1466.89
	178	3.58	1.22301E-001	-8.64178E-006	0.00000E+000	1.22005E-001	0.00000E+000	9	...........	1466.89
	180	3.62	1.20299E-001	-8.68090E-006	0.00000E+000	1.20005E-001	0.00000E+000	9	...........	1466.89
	182	3.66	1.18299E-001	-8.72430E-006	0.00000E+000	1.18006E-001	0.00000E+000	9	...........	1466.89
	184	3.7	1.16297E-001	-8.76526E-006	0.00000E+000	1.16006E-001	0.00000E+000	9	...........	1466.89
	186	3.74	1.14298E-001	-8.80404E-006	0.00000E+000	1.14006E-001	0.00000E+000	9	...........	1466.89
	188	3.78	1.12282E-001	-8.86828E-006	0.00000E+000	1.11994E-001	0.00000E+000	9	...........	1466.89
	190	3.82	1.10284E-001	-8.88361E-006	0.00000E+000	1.09994E-001	0.00000E+000	9	...........	1466.89
	192	3.86	1.08283E-001	-8.93539E-006	0.00000E+000	1.07994E-001	0.00000E+000	9	...........	1466.89
	194	3.9	1.06283E-001	-8.97415E-006	0.00000E+000	1.05994E-001	0.00000E+000	9	...........	1466.89
	196	3.94	1.04281E-001	-9.02618E-006	0.00000E+000	1.03995E-001	0.00000E+000	9	...........	1466.89
	198	3.98	1.02283E-001	-9.08688E-006	0.00000E+000	1.01995E-001	0.00000E+000	9	...........	1466.84
	200	4.02	1.00282E-001	-9.13710E-006	0.00000E+000	9.99950E-002	0.00000E+000	9	...........	1466.71
CURVE2	TABLE
	Pt	T	Vf	Im	Vu	Sig	Ach	IERange	Over	Temp
	#	s	V vs. Ref.	A	V	V	V	#	bits	deg C
	201	4.04	1.01260E-001	-4.83644E-006	0.00000E+000	1.00995E-001	0.00000E+000	9	...........	1466.71
	203	4.08	1.03261E-001	-4.52795E-006	0.00000E+000	1.02995E-001	0.00000E+000	9	...........	1466.71
	205	4.12	1.05258E-001	-4.40422E-006	0.00000E+000	1.04994E-001	0.00000E+000	9	...........	1466.71
	207	4.16	1.07259E-001	-4.33113E-006	0.00000E+000	1.06994E-001	0.00000E+000	9	...........	1466.71
	209	4.2	1.09262E-001	-4.26633E-006	0.00000E+000	1.08994E-001	0.00000E+000	9	...........	1466.71
	211	4.24	1.11260E-001	-4.22237E-006	0.00000E+000	1.10994E-001	0.00000E+000	9	...........	1466.71
	213	4.28	1.13276E-001	-4.15613E-006	0.00000E+000	1.13006E-001	0.00000E+000	9	...........	1466.71
	215	4.32	1.15276E-001	-4.14848E-006	0.00000E+000	1.15006E-001	0.00000E+000	9	...........	1466.71
	217	4.36	1.17274E-001	-4.11186E-006	0.00000E+000	1.17006E-001	0.00000E+000	9	...........	1466.71
	219	4.4	1.19276E-001	-4.07845E-006	0.00000E+000	1.19006E-001	0.00000E+000	9	...........	1466.71
	221	4.44	1.21277E-001	-4.04999E-006	0.00000E+000	1.21005E-001	0.00000E+000	9	...........	1466.71
	223	4.48	1.23278E-001	-4.02678E-006	0.00000E+000	1.23005E-001	0.00000E+000	9	...........	1466.71
	225	4.52	1.25278E-001	-3.99490E-006	0.00000E+000	1.25005E-001	0.00000E+000	9	...........	1466.71
	227	4.56	1.27279E-001	-3.97620E-006	0.00000E+000	1.27005E-001	0.00000E+000	9	...........	1466.71
	229	4.6	1.29283E-001	-3.95397E-006	0.00000E+000	1.29005E-001	0.00000E+000	9	...........	1466.71
	231	4.64	1.31283E-001	-3.92490E-006	0.00000E+000	1.31004E-001	0.00000E+000	9	...........	1466.71
	233	4.68	1.33284E-001	-3.90166E-006	0.00000E+000	1.33004E-001	0.00000E+000	9	...........	1466.71
	235	4.72	1.35283E-001	-3.88044E-006	0.00000E+000	1.35004E-001	0.00000E+000	9	...........	1466.71
	237	4.76	1.37282E-001	-3.85751E-006	0.00000E+000	1.37004E-001	0.00000E+000	9	...........	1466.71
	239	4.8	1.39281E-001	-3.83884E-006	0.00000E+000	1.39004E-001	0.00000E+000	9	...........	1466.71
	241	4.84	1.41284E-001	-3.81867E-006	0.00000E+000	1.41003E-001	0.00000E+000	9	...........	1466.71
	243	4.88	1.43283E-001	-3.79569E-006	0.00000E+000	1.43003E-001	0.00000E+000	9	...........	1466.71
	245	4.92	1.45286E-001	-3.76970E-006	0.00000E+000	1.45003E-001	0.00000E+000	9	...........	1466.71
	247	4.96	1.47286E-001	-3.74800E-006	0.00000E+000	1.47003E-001	0.00000E+000	9	...........	1466.71
	249	5	1.49287E-001	-3.73476E-006	0.00000E+000	1.49003E-001	0.00000E+000	9	...........	1466.62
	251	5.04	1.51286E-001	-3.70374E-006	0.00000E+000	1.51002E-001	0.00000E+000	9	...........	1466.62
	253	5.08	1.53284E-001	-3.68245E-006	0.00000E+000	1.53002E-001	0.00000E+000	9	...........	1466.62
	255	5.12	1.55286E-001	-3.66456E-006	0.00000E+000	1.55002E-001	0.00000E+000	9	...........	1466.62
	257	5.16	1.57284E-001	-3.64269E-006	0.00000E+000	1.57002E-001	0.00000E+000	9	...........	1466.62
	259	5.2	1.59289E-001	-3.61885E-006	0.00000E+000	1.59001E-001	0.00000E+000	9	...........	1466.62
	261	5.24	1.61288E-001	-3.59492E-006	0.00000E+000	1.61001E-001	0.00000E+000	9	...........	1466.62
	263	5.28	1.63288E-001	-3.57049E-006	0.00000E+000	1.63001E-001	0.00000E+000	9	...........	1466.62
	265	5.32	1.65289E-001	-3.55091E-006	0.00000E+000	1.65001E-001	0.00000E+000	9	...........	1466.62
	267	5.36	1.67290E-001	-3.52818E-006	0.00000E+000	1.67001E-001	0.00000E+000	9	...........	1466.62
	269	5.4	1.69289E-001	-3.51207E-006	0.00000E+000	1.69000E-001	0.00000E+000	9	...........	1466.62
	271	5.44	1.71291E-001	-3.48664E-006	0.00000E+000	1.71000E-001	0.00000E+000	9	...........	1466.62
	273	5.48	1.73292E-001	-3.46527E-006	0.00000E+000	1.73000E-001	0.00000E+000	9	...........	1466.62
	275	5.52	1.75291E-001	-3.44215E-006	0.00000E+000	1.75000E-001	0.00000E+000	9	...........	1466.62
	277	5.56	1.77293E-001	-3.42159E-006	0.00000E+000	1.77000E-001	0.00000E+000	9	...........	1466.62
	279	5.6	1.79296E-001	-3.40437E-006	0.00000E+000	1.78999E-001	0.00000E+000	9	...........	1466.62
	281	5.64	1.81294E-001	-3.37546E-006	0.00000E+000	1.80999E-001	0.00000E+000	9	...........	1466.62
	283	5.68	1.83296E-001	-3.34950E-006	0.00000E+000	1.82999E-001	0.00000E+000	9	...........	1466.62
	285	5.72	1.85297E-001	-3.32874E-006	0.00000E+000	1.84999E-001	0.00000E+000	9	...........	1466.62
	287	5.76	1.87298E-001	-3.29753E-006	0.00000E+000	1.86999E-001	0.00000E+000	9	...........	1466.62
	289	5.8	1.89294E-001	-3.27708E-006	0.00000E+000	1.88998E-001	0.00000E+000	9	...........	1466.62
	291	5.84	1.91299E-001	-3.24469E-006	0.00000E+000	1.90998E-001	0.00000E+000	9	...........	1466.62
	293	5.88	1.93301E-001	-3.22639E-006	0.00000E+000	1.92998E-001	0.00000E+000	9	...........	1466.62
	295	5.92	1.95299E-001	-3.19770E-006	0.00000E+000	1.94998E-001	0.00000E+000	9	...........	1466.62
	297	5.96	1.97302E-001	-3.17987E-006	0.00000E+000	1.96998E-001	0.00000E+000	9	...........	1466.62
	299	6	1.99304E-001	-3.14921E-006	0.00000E+000	1.98997E-001	0.00000E+000	9	...........	1466.80
	301	6.04	1.99326E-001	-7.04892E-006	0.00000E+000	1.98997E-001	0.00000E+000	9	...........	1466.80
	303	6.08	1.97325E-001	-7.33488E-006	0.00000E+000	1.96998E-001	0.00000E+000	9	...........	1466.80
[...]
	431	8.64	1.31279E-001	-3.95408E-006	0.00000E+000	1.31004E-001	0.00000E+000	9	...........	1466.71
	433	8.68	1.33280E-001	-3.93430E-006	0.00000E+000	1.33004E-001	0.00000E+000	9	...........	1466.71
	435	8.72	1.35282E-001	-3.90790E-006	0.00000E+000	1.35004E-001	0.00000E+000	9	...........	1466.71
	437	8.76	1.37281E-001	-3.89048E-006	0.00000E+000	1.37004E-001	0.00000E+000	9	...........	1466.71
	439	8.8	1.39283E-001	-3.86118E-006	0.00000E+000	1.39004E-001	0.00000E+000	9	...........	1466.71
	441	8.84	1.41286E-001	-3.84535E-006	0.00000E+000	1.41003E-001	0.00000E+000	9	...........	1466.71
	443	8.88	1.43282E-001	-3.82588E-006	0.00000E+000	1.43003E-001	0.00000E+000	9	...........	1466.71
	445	8.92	1.45283E-001	-3.79928E-006	0.00000E+000	1.45003E-001	0.00000E+000	9	...........	1466.71
	447	8.96	1.47286E-001	-3.77610E-006	0.00000E+000	1.47003E-001	0.00000E+000	9	...........	1466.71
	449	9	1.49285E-001	-3.76152E-006	0.00000E+000	1.49003E-001	0.00000E+000	9	...........	1466.62
	451	9.04	1.51283E-001	-3.73609E-006	0.00000E+000	1.51002E-001	0.00000E+000	9	...........	1466.62
	453	9.08	1.53283E-001	-3.71436E-006	0.00000E+000	1.53002E-001	0.00000E+000	9	...........	1466.62
	455	9.12	1.55283E-001	-3.69286E-006	0.00000E+000	1.55002E-001	0.00000E+000	9	...........	1466.62
	457	9.16	1.57281E-001	-3.66668E-006	0.00000E+000	1.57002E-001	0.00000E+000	9	...........	1466.62
	459	9.2	1.59285E-001	-3.64364E-006	0.00000E+000	1.59001E-001	0.00000E+000	9	...........	1466.62
	461	9.24	1.61285E-001	-3.62116E-006	0.00000E+000	1.61001E-001	0.00000E+000	9	...........	1466.62
	463	9.28	1.63286E-001	-3.60118E-006	0.00000E+000	1.63001E-001	0.00000E+000	9	...........	1466.62
	465	9.32	1.65285E-001	-3.57503E-006	0.00000E+000	1.65001E-001	0.00000E+000	9	...........	1466.62
	467	9.36	1.67286E-001	-3.55002E-006	0.00000E+000	1.67001E-001	0.00000E+000	9	...........	1466.62
	469	9.4	1.69287E-001	-3.53716E-006	0.00000E+000	1.69000E-001	0.00000E+000	9	...........	1466.62
	471	9.44	1.71290E-001	-3.50942E-006	0.00000E+000	1.71000E-001	0.00000E+000	9	...........	1466.62
	473	9.48	1.73291E-001	-3.48953E-006	0.00000E+000	1.73000E-001	0.00000E+000	9	...........	1466.62
	475	9.52	1.75289E-001	-3.46599E-006	0.00000E+000	1.75000E-001	0.00000E+000	9	...........	1466.62
	477	9.56	1.77293E-001	-3.44207E-006	0.00000E+000	1.77000E-001	0.00000E+000	9	...........	1466.62
	479	9.6	1.79296E-001	-3.41488E-006	0.00000E+000	1.78999E-001	0.00000E+000	9	...........	1466.62
	481	9.64	1.81295E-001	-3.39399E-006	0.00000E+000	1.80999E-001	0.00000E+000	9	...........	1466.62
	483	9.68	1.83296E-001	-3.36694E-006	0.00000E+000	1.82999E-001	0.00000E+000	9	...........	1466.62
	485	9.72	1.85295E-001	-3.34661E-006	0.00000E+000	1.84999E-001	0.00000E+000	9	...........	1466.62
	487	9.76	1.87296E-001	-3.32299E-006	0.00000E+000	1.86999E-001	0.00000E+000	9	...........	1466.62
	489	9.8	1.89292E-001	-3.29313E-006	0.00000E+000	1.88998E-001	0.00000E+000	9	...........	1466.62
	491	9.84	1.91297E-001	-3.26734E-006	0.00000E+000	1.90998E-001	0.00000E+000	9	...........	1466.62
	493	9.88	1.93297E-001	-3.24046E-006	0.00000E+000	1.92998E-001	0.00000E+000	9	...........	1466.62
	495	9.92	1.95296E-001	-3.21707E-006	0.00000E+000	1.94998E-001	0.00000E+000	9	...........	1466.62
	497	9.96	1.97297E-001	-3.19141E-006	0.00000E+000	1.96998E-001	0.00000E+000	9	...........	1466.62
	499	10	1.99300E-001	-3.16465E-006	0.00000E+000	1.98997E-001	0.00000E+000	9	...........	1466.71
	501	10.04	1.99321E-001	-7.05857E-006	0.00000E+000	1.98997E-001	0.00000E+000	9	...........	1466.71
	503	10.08	1.97321E-001	-7.34495E-006	0.00000E+000	1.96998E-001	0.00000E+000	9	...........	1466.71
	505	10.12	1.95318E-001	-7.46369E-006	0.00000E+000	1.94998E-001	0.00000E+000	9	...........	1466.71
	507	10.16	1.93318E-001	-7.54566E-006	0.00000E+000	1.92998E-001	0.00000E+000	9	...........	1466.71
	509	10.2	1.91319E-001	-7.60831E-006	0.00000E+000	1.90998E-001	0.00000E+000	9	...........	1466.71
	511	10.24	1.89314E-001	-7.67194E-006	0.00000E+000	1.88998E-001	0.00000E+000	9	...........	1466.71
	513	10.28	1.87317E-001	-7.70658E-006	0.00000E+000	1.86999E-001	0.00000E+000	9	...........	1466.71
	515	10.32	1.85317E-001	-7.75213E-006	0.00000E+000	1.84999E-001	0.00000E+000	9	...........	1466.71
	517	10.36	1.83318E-001	-7.79256E-006	0.00000E+000	1.82999E-001	0.00000E+000	9	...........	1466.71
	519	10.4	1.81316E-001	-7.83293E-006	0.00000E+000	1.80999E-001	0.00000E+000	9	...........	1466.71
	521	10.44	1.79316E-001	-7.86370E-006	0.00000E+000	1.78999E-001	0.00000E+000	9	...........	1466.71
	523	10.48	1.77311E-001	-7.89169E-006	0.00000E+000	1.77000E-001	0.00000E+000	9	...........	1466.71
	525	10.52	1.75310E-001	-7.92285E-006	0.00000E+000	1.75000E-001	0.00000E+000	9	...........	1466.71
	527	10.56	1.73311E-001	-7.95440E-006	0.00000E+000	1.73000E-001	0.00000E+000	9	...........	1466.71
	529	10.6	1.71311E-001	-7.97385E-006	0.00000E+000	1.71000E-001	0.00000E+000	9	...........	1466.71
	531	10.64	1.69309E-001	-8.01491E-006	0.00000E+000	1.69000E-001	0.00000E+000	9	...........	1466.71
	533	10.68	1.67307E-001	-8.03547E-006	0.00000E+000	1.67001E-001	0.00000E+000	9	...........	1466.71
	535	10.72	1.65307E-001	-8.05392E-006	0.00000E+000	1.65001E-001	0.00000E+000	9	...........	1466.71
	537	10.76	1.63307E-001	-8.08578E-006	0.00000E+000	1.63001E-001	0.00000E+000	9	...........	1466.71
	539	10.8	1.61305E-001	-8.10909E-006	0.00000E+000	1.61001E-001	0.00000E+000	9	...........	1466.71
	541	10.84	1.59307E-001	-8.13321E-006	0.00000E+000	1.59001E-001	0.00000E+000	9	...........	1466.71
	543	10.88	1.57304E-001	-8.15133E-006	0.00000E+000	1.57002E-001	0.00000E+000	9	...........	1466.71
	545	10.92	1.55304E-001	-8.18457E-006	0.00000E+000	1.55002E-001	0.00000E+000	9	...........	1466.71
	547	10.96	1.53302E-001	-8.20936E-006	0.00000E+000	1.53002E-001	0.00000E+000	9	...........	1466.71
	549	11	1.51304E-001	-8.23432E-006	0.00000E+000	1.51002E-001	0.00000E+000	9	...........	1466.71
	551	11.04	1.49306E-001	-8.25382E-006	0.00000E+000	1.49003E-001	0.00000E+000	9	...........	1466.71
	553	11.08	1.47306E-001	-8.28971E-006	0.00000E+000	1.47003E-001	0.00000E+000	9	...........	1466.71
	555	11.12	1.45303E-001	-8.31823E-006	0.00000E+000	1.45003E-001	0.00000E+000	9	...........	1466.71
	557	11.16	1.43301E-001	-8.34255E-006	0.00000E+000	1.43003E-001	0.00000E+000	9	...........	1466.71
	559	11.2	1.41303E-001	-8.36806E-006	0.00000E+000	1.41003E-001	0.00000E+000	9	...........	1466.71
	561	11.24	1.39303E-001	-8.39396E-006	0.00000E+000	1.39004E-001	0.00000E+000	9	...........	1466.71
	563	11.28	1.37302E-001	-8.42143E-006	0.00000E+000	1.37004E-001	0.00000E+000	9	...........	1466.71
	565	11.32	1.35303E-001	-8.44544E-006	0.00000E+000	1.35004E-001	0.00000E+000	9	...........	1466.71
	567	11.36	1.33303E-001	-8.48539E-006	0.00000E+000	1.33004E-001	0.00000E+000	9	...........	1466.71
	569	11.4	1.31302E-001	-8.51007E-006	0.00000E+000	1.31004E-001	0.00000E+000	9	...........	1466.71
	571	11.44	1.29302E-001	-8.53491E-006	0.00000E+000	1.29005E-001	0.00000E+000	9	...........	1466.71
	573	11.48	1.27301E-001	-8.57256E-006	0.00000E+000	1.27005E-001	0.00000E+000	9	...........	1466.71
	575	11.52	1.25297E-001	-8.60837E-006	0.00000E+000	1.25005E-001	0.00000E+000	9	...........	1466.71
	577	11.56	1.23300E-001	-8.63980E-006	0.00000E+000	1.23005E-001	0.00000E+000	9	...........	1466.71
	579	11.6	1.21299E-001	-8.67742E-006	0.00000E+000	1.21005E-001	0.00000E+000	9	...........	1466.71
	581	11.64	1.19295E-001	-8.71757E-006	0.00000E+000	1.19006E-001	0.00000E+000	9	...........	1466.71
	583	11.68	1.17294E-001	-8.75585E-006	0.00000E+000	1.17006E-001	0.00000E+000	9	...........	1466.71
	585	11.72	1.15295E-001	-8.79272E-006	0.00000E+000	1.15006E-001	0.00000E+000	9	...........	1466.71
	587	11.76	1.13294E-001	-8.84188E-006	0.00000E+000	1.13006E-001	0.00000E+000	9	...........	1466.71
	589	11.8	1.11279E-001	-8.88189E-006	0.00000E+000	1.10994E-001	0.00000E+000	9	...........	1466.71
	591	11.84	1.09279E-001	-8.92579E-006	0.00000E+000	1.08994E-001	0.00000E+000	9	...........	1466.71
	593	11.88	1.07279E-001	-8.97582E-006	0.00000E+000	1.06994E-001	0.00000E+000	9	...........	1466.71
	595	11.92	1.05278E-001	-9.02523E-006	0.00000E+000	1.04994E-001	0.00000E+000	9	...........	1466.71
	597	11.96	1.03278E-001	-9.07425E-006	0.00000E+000	1.02995E-001	0.00000E+000	9	...........	1466.71
	599	12	1.01277E-001	-9.13390E-006	0.00000E+000	1.00995E-001	0.00000E+000	9	...........	1466.71
	600	12.02	1.00277E-001	-9.16106E-006	0.00000E+000	9.99950E-002	0.00000E+000	9	...........	1466.71
CURVE4	TABLE
	Pt	T	Vf	Im	Vu	Sig	Ach	IERange	Over	Temp
	#	s	V vs. Ref.	A	V	V	V	#	bits	deg C
	601	12.04	1.00266E-001	-7.01942E-006	0.00000E+000	9.99950E-002	0.00000E+000	9	...........	1466.71