File: input/CV_ECSA_#2_#7.DTA
EXPLAIN
TAG	CV
TITLE	LABEL	ECSA	Test Identifier
DATE	LABEL	17.7.2024	Date
TIME	LABEL	13:20:52	Time
NOTES	NOTES	1	Notes...

PSTAT	PSTAT	IFC1010-34090	Potentiostat
VINIT	POTEN	1.00000E-001	F	A Potential (V)
VLIMIT1	POTEN	2.00000E-001	F	A Potential (V)
VLIMIT2	POTEN	1.00000E-001	F	A Potential (V)
VFINAL	POTEN	1.00000E-001	F	A Potential (V)
SCANRATE	QUANT	6.99999E+001	A Real Number
STEPSIZE	QUANT	1.00000E+000	Step Size (mV)
CYCLES	IQUANT	3	Cycles (#)
IMODE	SELECTOR	1	I/E Range Mode
IRANGE	QUANT	3.00000E-001	Max Current (mA)
AREA	QUANT	1.00000E+000	Sample Area (cm^2)
EQDELAY	QUANT	0.00000E+000	Equil. Time (s)
IRCOMP	SELECTOR	0	IRComp
PFCOR	QUANT	5.00000E+001	PF Corr. (ohm)
SAMPLINGMODE	SELECTOR	2	Sampling Mode
EOC	QUANT	0.7205974	Open Circuit (V)
ELECTRODETYPE	SELECTOR	0	Electrode Type
STRIPPING	TOGGLE	F	Used for Stripping
SEQUENCER	TOGGLE	TRUE	Run as Sequence
PSTATMODEL	IQUANT	64	Pstat Model
PSTATSECTION	LABEL	IFC1010-34090	Pstat Section
PSTATSERIALNO	LABEL	34090	Pstat Serial Number
CTRLMODE	IQUANT	1	Control Mode
ELECTROMETER	IQUANT	0	RE=0 or CS=1
IESTAB	IQUANT	2	I/E Stability
CASPEED	IQUANT	4	Control Amp Speed
CONVENTION	IQUANT	1	Current Convention
ICHRANGE	IQUANT	2	Ich Range
ICHRANGEMODE	TOGGLE	F	Ich Auto Range
ICHOFFSETENABLE	TOGGLE	F	Ich Offset Enable
ICHOFFSET	QUANT	0	Ich Offset (V)
ICHFILTER	IQUANT	3	Ich Filter
VCHRANGE	IQUANT	1	Vch Range
VCHRANGEMODE	TOGGLE	F	Vch Auto Range
VCHOFFSETENABLE	TOGGLE	F	Vch Offset Enable
VCHOFFSET	QUANT	0	Vch Offset (V)
VCHFILTER	IQUANT	3	Vch Filter
IERANGELOWERLIMIT	IQUANT	4	I/E Range Lower Limit
IERANGEMODE	TOGGLE	F	I/E AutoRange
IERANGE	IQUANT	9	I/E Range
ACHSELECT	IQUANT	0	Ach Select
ACHRANGE	IQUANT	2	Ach Range
ACHOFFSETENABLE	TOGGLE	F	Ach Offset Enable
ACHOFFSET	QUANT	0	Ach Offset (V)
ACHFILTER	IQUANT	1	Ach Filter
SENSECABLEID	IQUANT	13	Sense Cable ID
PWRCABLEID	IQUANT	13	Power Cable ID
DCCALDATE	LABEL	1/30/2024	DC Calibration Date
ACCALDATE	LABEL	1/8/2024	AC Calibration Date
FRAMEWORKVERSION	LABEL	7.10.3	Framework Version
INSTRUMENTVERSION	LABEL	4.91	Instrument Version
COMMVERSION	LABEL	3.10	Communications Version
CPUPLDVERSION	LABEL	2.22	CPU PLD Version
CTRLPLDVERSION	LABEL	0.00	CTRL PLD Version
PSTATPLDVERSION	LABEL	0.00	PSTAT PLD Version
CURVE1	TABLE
	Pt	T	Vf	Im	Vu	Sig	Ach	IERange	Over	Temp
	#	s	V vs. Ref.	A	V	V	V	#	bits	deg C
	0	0.014283	1.00296E-001	-2.07385E-005	0.00000E+000	9.99950E-002	0.00000E+000	9	...........	1467.43
	3	0.057133	1.03283E-001	-1.71754E-005	0.00000E+000	1.02995E-001	0.00000E+000	9	...........	1467.43
	6	0.099983	1.06281E-001	-1.68223E-005	0.00000E+000	1.05994E-001	0.00000E+000	9	...........	1467.43
	9	0.142833	1.09284E-001	-1.65921E-005	0.00000E+000	1.08994E-001	0.00000E+000	9	...........	1467.43
	12	0.185683	1.12283E-001	-1.63802E-005	0.00000E+000	1.11994E-001	0.00000E+000	9	...........	1467.43
	15	0.228533	1.15288E-001	-1.61585E-005	0.00000E+000	1.14993E-001	0.00000E+000	9	...........	1467.43
	18	0.271383	1.18286E-001	-1.59305E-005	0.00000E+000	1.17993E-001	0.00000E+000	9	...........	1467.43
	21	0.314233	1.21290E-001	-1.56771E-005	0.00000E+000	1.20993E-001	0.00000E+000	9	...........	1467.43
	24	0.357083	1.24290E-001	-1.54583E-005	0.00000E+000	1.23993E-001	0.00000E+000	9	...........	1467.43
	27	0.399933	1.27290E-001	-1.52825E-005	0.00000E+000	1.26992E-001	0.00000E+000	9	...........	1467.43
	30	0.442783	1.30292E-001	-1.51316E-005	0.00000E+000	1.29992E-001	0.00000E+000	9	...........	1467.43
	33	0.485633	1.33294E-001	-1.49740E-005	0.00000E+000	1.32992E-001	0.00000E+000	9	...........	1467.43
	36	0.528483	1.36293E-001	-1.47955E-005	0.00000E+000	1.35991E-001	0.00000E+000	9	...........	1467.43
	39	0.571333	1.39294E-001	-1.45932E-005	0.00000E+000	1.38991E-001	0.00000E+000	9	...........	1467.43
	42	0.614183	1.42295E-001	-1.43745E-005	0.00000E+000	1.41991E-001	0.00000E+000	9	...........	1467.34
	45	0.657033	1.45297E-001	-1.41679E-005	0.00000E+000	1.44990E-001	0.00000E+000	9	...........	1467.34
	48	0.699883	1.48298E-001	-1.40289E-005	0.00000E+000	1.47990E-001	0.00000E+000	9	...........	1467.34
	51	0.742733	1.51297E-001	-1.38978E-005	0.00000E+000	1.50990E-001	0.00000E+000	9	...........	1467.34
	54	0.785583	1.54298E-001	-1.37418E-005	0.00000E+000	1.53989E-001	0.00000E+000	9	...........	1467.34
	57	0.828433	1.57295E-001	-1.35746E-005	0.00000E+000	1.56989E-001	0.00000E+000	9	...........	1467.34
	60	0.871283	1.60300E-001	-1.33864E-005	0.00000E+000	1.59989E-001	0.00000E+000	9	...........	1467.34
	63	0.914133	1.63298E-001	-1.31756E-005	0.00000E+000	1.62989E-001	0.00000E+000	9	...........	1467.34
	66	0.95698	1.66302E-001	-1.29971E-005	0.00000E+000	1.65988E-001	0.00000E+000	9	...........	1467.34
	69	0.99983	1.69300E-001	-1.28594E-005	0.00000E+000	1.68988E-001	0.00000E+000	9	...........	1467.34
	72	1.04268	1.72304E-001	-1.27266E-005	0.00000E+000	1.71988E-001	0.00000E+000	9	...........	1467.34
	75	1.08553	1.75303E-001	-1.25768E-005	0.00000E+000	1.74987E-001	0.00000E+000	9	...........	1467.34
	78	1.12838	1.78306E-001	-1.23958E-005	0.00000E+000	1.77987E-001	0.00000E+000	9	...........	1467.34
	81	1.17123	1.81308E-001	-1.21964E-005	0.00000E+000	1.80987E-001	0.00000E+000	9	...........	1467.34
	84	1.21408	1.84308E-001	-1.19786E-005	0.00000E+000	1.83986E-001	0.00000E+000	9	...........	1467.34
	87	1.25693	1.87310E-001	-1.17845E-005	0.00000E+000	1.86986E-001	0.00000E+000	9	...........	1467.34
	90	1.29978	1.90310E-001	-1.16315E-005	0.00000E+000	1.89986E-001	0.00000E+000	9	...........	1467.34
	93	1.34263	1.93310E-001	-1.14761E-005	0.00000E+000	1.92986E-001	0.00000E+000	9	...........	1467.34
	96	1.38548	1.96310E-001	-1.13055E-005	0.00000E+000	1.95985E-001	0.00000E+000	9	...........	1467.34
	99	1.42833	1.99311E-001	-1.10942E-005	0.00000E+000	1.98985E-001	0.00000E+000	9	...........	1467.34
	102	1.47118	1.98342E-001	-1.70822E-005	0.00000E+000	1.97985E-001	0.00000E+000	9	...........	1467.34
	105	1.51403	1.95340E-001	-1.77409E-005	0.00000E+000	1.94985E-001	0.00000E+000	9	...........	1467.34
	108	1.55688	1.92341E-001	-1.81714E-005	0.00000E+000	1.91986E-001	0.00000E+000	9	...........	1467.34
	111	1.59973	1.89335E-001	-1.85295E-005	0.00000E+000	1.88986E-001	0.00000E+000	9	...........	1467.52
	114	1.64258	1.86339E-001	-1.88427E-005	0.00000E+000	1.85986E-001	0.00000E+000	9	...........	1467.52
	117	1.68543	1.83340E-001	-1.91002E-005	0.00000E+000	1.82987E-001	0.00000E+000	9	...........	1467.52
	120	1.72828	1.80336E-001	-1.92940E-005	0.00000E+000	1.79987E-001	0.00000E+000	9	...........	1467.52
	123	1.77113	1.77337E-001	-1.94529E-005	0.00000E+000	1.76987E-001	0.00000E+000	9	...........	1467.52
	126	1.81398	1.74335E-001	-1.96120E-005	0.00000E+000	1.73987E-001	0.00000E+000	9	...........	1467.52
	129	1.85683	1.71333E-001	-1.97920E-005	0.00000E+000	1.70988E-001	0.00000E+000	9	...........	1467.52
	132	1.89968	1.68333E-001	-1.99902E-005	0.00000E+000	1.67988E-001	0.00000E+000	9	...........	1467.52
	135	1.94253	1.65332E-001	-2.01853E-005	0.00000E+000	1.64988E-001	0.00000E+000	9	...........	1467.52
	138	1.98538	1.62327E-001	-2.03520E-005	0.00000E+000	1.61989E-001	0.00000E+000	9	...........	1467.52
	141	2.02823	1.59329E-001	-2.04913E-005	0.00000E+000	1.58989E-001	0.00000E+000	9	...........	1467.52
	144	2.07108	1.56327E-001	-2.06032E-005	0.00000E+000	1.55989E-001	0.00000E+000	9	...........	1467.52
	147	2.11393	1.53324E-001	-2.07302E-005	0.00000E+000	1.52990E-001	0.00000E+000	9	...........	1467.52
	150	2.15678	1.50323E-001	-2.08922E-005	0.00000E+000	1.49990E-001	0.00000E+000	9	...........	1467.52
	153	2.19963	1.47326E-001	-2.10681E-005	0.00000E+000	1.46990E-001	0.00000E+000	9	...........	1467.52
	156	2.24248	1.44323E-001	-2.12518E-005	0.00000E+000	1.43991E-001	0.00000E+000	9	...........	1467.52
	159	2.28533	1.41326E-001	-2.14089E-005	0.00000E+000	1.40991E-001	0.00000E+000	9	...........	1467.52
	162	2.32818	1.38325E-001	-2.15337E-005	0.00000E+000	1.37991E-001	0.00000E+000	9	...........	1467.52
	165	2.37103	1.35323E-001	-2.16453E-005	0.00000E+000	1.34991E-001	0.00000E+000	9	...........	1467.52
	168	2.41388	1.32324E-001	-2.17751E-005	0.00000E+000	1.31992E-001	0.00000E+000	9	...........	1467.52
	171	2.45673	1.29324E-001	-2.19484E-005	0.00000E+000	1.28992E-001	0.00000E+000	9	...........	1467.52
	174	2.49958	1.26321E-001	-2.21544E-005	0.00000E+000	1.25992E-001	0.00000E+000	9	...........	1467.52
	177	2.54243	1.23318E-001	-2.23386E-005	0.00000E+000	1.22993E-001	0.00000E+000	9	...........	1467.52
	180	2.58528	1.20317E-001	-2.25120E-005	0.00000E+000	1.19993E-001	0.00000E+000	9	...........	1467.52
	183	2.62813	1.17315E-001	-2.26565E-005	0.00000E+000	1.16993E-001	0.00000E+000	9	...........	1467.52
	186	2.67098	1.14316E-001	-2.27888E-005	0.00000E+000	1.13994E-001	0.00000E+000	9	...........	1467.52
	189	2.71383	1.11312E-001	-2.29506E-005	0.00000E+000	1.10994E-001	0.00000E+000	9	...........	1467.52
	192	2.75668	1.08313E-001	-2.31569E-005	0.00000E+000	1.07994E-001	0.00000E+000	9	...........	1467.52
	195	2.79953	1.05311E-001	-2.34061E-005	0.00000E+000	1.04994E-001	0.00000E+000	9	...........	1467.52
	198	2.84238	1.02310E-001	-2.36097E-005	0.00000E+000	1.01995E-001	0.00000E+000	9	...........	1467.52
	200	2.87095	1.00310E-001	-2.36683E-005	0.00000E+000	9.99950E-002	0.00000E+000	9	...........	1467.52
CURVE2	TABLE
	Pt	T	Vf	Im	Vu	Sig	Ach	IERange	Over	Temp
	#	s	V vs. Ref.	A	V	V	V	#	bits	deg C
	201	2.88523	1.01280E-001	-1.80964E-005	0.00000E+000	1.00995E-001	0.00000E+000	9	...........	1467.52
	204	2.92808	1.04278E-001	-1.72675E-005	0.00000E+000	1.03995E-001	0.00000E+000	9	...........	1467.52
	207	2.97093	1.07279E-001	-1.68585E-005	0.00000E+000	1.06994E-001	0.00000E+000	9	...........	1467.52
	210	3.01378	1.10284E-001	-1.65694E-005	0.00000E+000	1.09994E-001	0.00000E+000	9	...........	1467.52
	213	3.05663	1.13284E-001	-1.63458E-005	0.00000E+000	1.12994E-001	0.00000E+000	9	...........	1467.52
	216	3.09948	1.16283E-001	-1.61548E-005	0.00000E+000	1.15993E-001	0.00000E+000	9	...........	1467.52
	219	3.14233	1.19286E-001	-1.59579E-005	0.00000E+000	1.18993E-001	0.00000E+000	9	...........	1467.52
	222	3.18518	1.22288E-001	-1.57480E-005	0.00000E+000	1.21993E-001	0.00000E+000	9	...........	1467.52
	225	3.22803	1.25288E-001	-1.55186E-005	0.00000E+000	1.24992E-001	0.00000E+000	9	...........	1467.52
	228	3.27088	1.28292E-001	-1.52637E-005	0.00000E+000	1.27992E-001	0.00000E+000	9	...........	1467.52
	231	3.31373	1.31291E-001	-1.50783E-005	0.00000E+000	1.30992E-001	0.00000E+000	9	...........	1467.52
	234	3.35658	1.34292E-001	-1.49229E-005	0.00000E+000	1.33992E-001	0.00000E+000	9	...........	1467.52
	237	3.39943	1.37293E-001	-1.47760E-005	0.00000E+000	1.36991E-001	0.00000E+000	9	...........	1467.52
	240	3.44228	1.40295E-001	-1.46157E-005	0.00000E+000	1.39991E-001	0.00000E+000	9	...........	1467.52
	243	3.48513	1.43292E-001	-1.44355E-005	0.00000E+000	1.42991E-001	0.00000E+000	9	...........	1467.52
	246	3.52798	1.46296E-001	-1.42090E-005	0.00000E+000	1.45990E-001	0.00000E+000	9	...........	1467.52
	249	3.57083	1.49297E-001	-1.39964E-005	0.00000E+000	1.48990E-001	0.00000E+000	9	...........	1467.47
	252	3.61368	1.52292E-001	-1.38397E-005	0.00000E+000	1.51990E-001	0.00000E+000	9	...........	1467.34
	255	3.65653	1.55294E-001	-1.36884E-005	0.00000E+000	1.54989E-001	0.00000E+000	9	...........	1467.34
	258	3.69938	1.58295E-001	-1.35518E-005	0.00000E+000	1.57989E-001	0.00000E+000	9	...........	1467.34
	261	3.74223	1.61298E-001	-1.34007E-005	0.00000E+000	1.60989E-001	0.00000E+000	9	...........	1467.34
	264	3.78508	1.64300E-001	-1.32150E-005	0.00000E+000	1.63988E-001	0.00000E+000	9	...........	1467.34
	267	3.82793	1.67298E-001	-1.30096E-005	0.00000E+000	1.66988E-001	0.00000E+000	9	...........	1467.34
	270	3.87078	1.70304E-001	-1.28017E-005	0.00000E+000	1.69988E-001	0.00000E+000	9	...........	1467.34
	273	3.91363	1.73304E-001	-1.26485E-005	0.00000E+000	1.72988E-001	0.00000E+000	9	...........	1467.34
	276	3.95648	1.76303E-001	-1.25054E-005	0.00000E+000	1.75987E-001	0.00000E+000	9	...........	1467.34
	279	3.99933	1.79307E-001	-1.23734E-005	0.00000E+000	1.78987E-001	0.00000E+000	9	...........	1467.34
	282	4.04218	1.82307E-001	-1.22075E-005	0.00000E+000	1.81987E-001	0.00000E+000	9	...........	1467.34
	285	4.08503	1.85305E-001	-1.20029E-005	0.00000E+000	1.84986E-001	0.00000E+000	9	...........	1467.34
	288	4.12788	1.88307E-001	-1.17818E-005	0.00000E+000	1.87986E-001	0.00000E+000	9	...........	1467.34
	291	4.17073	1.91309E-001	-1.15642E-005	0.00000E+000	1.90986E-001	0.00000E+000	9	...........	1467.34
	294	4.21358	1.94308E-001	-1.13849E-005	0.00000E+000	1.93985E-001	0.00000E+000	9	...........	1467.34
	297	4.25643	1.97314E-001	-1.12191E-005	0.00000E+000	1.96985E-001	0.00000E+000	9	...........	1467.34
	300	4.29928	2.00314E-001	-1.10398E-005	0.00000E+000	1.99985E-001	0.00000E+000	9	...........	1467.34
	303	4.34213	1.97345E-001	-1.74259E-005	0.00000E+000	1.96985E-001	0.00000E+000	9	...........	1467.34
	306	4.38498	1.94341E-001	-1.79589E-005	0.00000E+000	1.93985E-001	0.00000E+000	9	...........	1467.34
	309	4.42783	1.91343E-001	-1.82960E-005	0.00000E+000	1.90986E-001	0.00000E+000	9	...........	1467.34
	312	4.47068	1.88342E-001	-1.85766E-005	0.00000E+000	1.87986E-001	0.00000E+000	9	...........	1467.34
	315	4.51353	1.85340E-001	-1.88655E-005	0.00000E+000	1.84986E-001	0.00000E+000	9	...........	1467.34
	318	4.55638	1.82339E-001	-1.91440E-005	0.00000E+000	1.81987E-001	0.00000E+000	9	...........	1467.34
	321	4.59923	1.79338E-001	-1.93656E-005	0.00000E+000	1.78987E-001	0.00000E+000	9	...........	1467.43
	324	4.64208	1.76334E-001	-1.95549E-005	0.00000E+000	1.75987E-001	0.00000E+000	9	...........	1467.43
	327	4.68493	1.73334E-001	-1.97049E-005	0.00000E+000	1.72988E-001	0.00000E+000	9	...........	1467.43
	330	4.72778	1.70334E-001	-1.98380E-005	0.00000E+000	1.69988E-001	0.00000E+000	9	...........	1467.43
	333	4.77063	1.67331E-001	-1.99856E-005	0.00000E+000	1.66988E-001	0.00000E+000	9	...........	1467.43
	336	4.81348	1.64329E-001	-2.01725E-005	0.00000E+000	1.63988E-001	0.00000E+000	9	...........	1467.43
	339	4.85633	1.61329E-001	-2.03575E-005	0.00000E+000	1.60989E-001	0.00000E+000	9	...........	1467.43
	342	4.89918	1.58329E-001	-2.05345E-005	0.00000E+000	1.57989E-001	0.00000E+000	9	...........	1467.43
	345	4.94203	1.55327E-001	-2.06789E-005	0.00000E+000	1.54989E-001	0.00000E+000	9	...........	1467.43
	348	4.98488	1.52326E-001	-2.08037E-005	0.00000E+000	1.51990E-001	0.00000E+000	9	...........	1467.43
	351	5.02773	1.49329E-001	-2.09023E-005	0.00000E+000	1.48990E-001	0.00000E+000	9	...........	1467.43
	354	5.07058	1.46328E-001	-2.10530E-005	0.00000E+000	1.45990E-001	0.00000E+000	9	...........	1467.43
	357	5.11343	1.43325E-001	-2.12305E-005	0.00000E+000	1.42991E-001	0.00000E+000	9	...........	1467.43
	360	5.15628	1.40325E-001	-2.14266E-005	0.00000E+000	1.39991E-001	0.00000E+000	9	...........	1467.43
	363	5.19913	1.37325E-001	-2.15958E-005	0.00000E+000	1.36991E-001	0.00000E+000	9	...........	1467.43
	366	5.24198	1.34322E-001	-2.17486E-005	0.00000E+000	1.33992E-001	0.00000E+000	9	...........	1467.43
	369	5.28483	1.31322E-001	-2.18676E-005	0.00000E+000	1.30992E-001	0.00000E+000	9	...........	1467.43
	372	5.32768	1.28322E-001	-2.19828E-005	0.00000E+000	1.27992E-001	0.00000E+000	9	...........	1467.43
	375	5.37053	1.25318E-001	-2.21418E-005	0.00000E+000	1.24992E-001	0.00000E+000	9	...........	1467.43
	378	5.41338	1.22321E-001	-2.23337E-005	0.00000E+000	1.21993E-001	0.00000E+000	9	...........	1467.43
	381	5.45623	1.19318E-001	-2.25361E-005	0.00000E+000	1.18993E-001	0.00000E+000	9	...........	1467.43
	384	5.49908	1.16317E-001	-2.27355E-005	0.00000E+000	1.15993E-001	0.00000E+000	9	...........	1467.43
	387	5.54193	1.13317E-001	-2.29063E-005	0.00000E+000	1.12994E-001	0.00000E+000	9	...........	1467.43
	390	5.58478	1.10316E-001	-2.30432E-005	0.00000E+000	1.09994E-001	0.00000E+000	9	...........	1467.43
	393	5.62763	1.07311E-001	-2.31914E-005	0.00000E+000	1.06994E-001	0.00000E+000	9	...........	1467.43
	396	5.67048	1.04312E-001	-2.33871E-005	0.00000E+000	1.03995E-001	0.00000E+000	9	...........	1467.43
	399	5.71333	1.01313E-001	-2.36246E-005	0.00000E+000	1.00995E-001	0.00000E+000	9	...........	1467.43
	400	5.72762	1.00313E-001	-2.36441E-005	0.00000E+000	9.99950E-002	0.00000E+000	9	...........	1467.43
CURVE3	TABLE
	Pt	T	Vf	Im	Vu	Sig	Ach	IERange	Over	Temp
	#	s	V vs. Ref.	A	V	V	V	#	bits	deg C
	401	5.7419	1.01283E-001	-1.80884E-005	0.00000E+000	1.00995E-001	0.00000E+000	9	...........	1467.43
	404	5.78475	1.04281E-001	-1.72365E-005	0.00000E+000	1.03995E-001	0.00000E+000	9	...........	1467.43
	407	5.8276	1.07281E-001	-1.68500E-005	0.00000E+000	1.06994E-001	0.00000E+000	9	...........	1467.43
	410	5.87045	1.10286E-001	-1.65826E-005	0.00000E+000	1.09994E-001	0.00000E+000	9	...........	1467.43
	413	5.9133	1.13285E-001	-1.63650E-005	0.00000E+000	1.12994E-001	0.00000E+000	9	...........	1467.43
	416	5.95615	1.16285E-001	-1.61670E-005	0.00000E+000	1.15993E-001	0.00000E+000	9	...........	1467.43
	419	5.999	1.19288E-001	-1.59619E-005	0.00000E+000	1.18993E-001	0.00000E+000	9	...........	1467.43
	422	6.04185	1.22287E-001	-1.57297E-005	0.00000E+000	1.21993E-001	0.00000E+000	9	...........	1467.43
	425	6.0847	1.25288E-001	-1.54887E-005	0.00000E+000	1.24992E-001	0.00000E+000	9	...........	1467.43
	428	6.12755	1.28291E-001	-1.52680E-005	0.00000E+000	1.27992E-001	0.00000E+000	9	...........	1467.43
	431	6.1704	1.31291E-001	-1.50906E-005	0.00000E+000	1.30992E-001	0.00000E+000	9	...........	1467.43
	434	6.21325	1.34291E-001	-1.49398E-005	0.00000E+000	1.33992E-001	0.00000E+000	9	...........	1467.43
	437	6.2561	1.37293E-001	-1.47906E-005	0.00000E+000	1.36991E-001	0.00000E+000	9	...........	1467.43
	440	6.29895	1.40294E-001	-1.46160E-005	0.00000E+000	1.39991E-001	0.00000E+000	9	...........	1467.43
	443	6.3418	1.43294E-001	-1.44190E-005	0.00000E+000	1.42991E-001	0.00000E+000	9	...........	1467.43
	446	6.38465	1.46297E-001	-1.41818E-005	0.00000E+000	1.45990E-001	0.00000E+000	9	...........	1467.43
	449	6.4275	1.49298E-001	-1.39977E-005	0.00000E+000	1.48990E-001	0.00000E+000	9	...........	1467.43
	452	6.47035	1.52294E-001	-1.38473E-005	0.00000E+000	1.51990E-001	0.00000E+000	9	...........	1467.43
	455	6.5132	1.55295E-001	-1.37239E-005	0.00000E+000	1.54989E-001	0.00000E+000	9	...........	1467.43
	458	6.55605	1.58296E-001	-1.35683E-005	0.00000E+000	1.57989E-001	0.00000E+000	9	...........	1467.43
	461	6.5989	1.61297E-001	-1.34069E-005	0.00000E+000	1.60989E-001	0.00000E+000	9	...........	1467.34
	464	6.64175	1.64297E-001	-1.32092E-005	0.00000E+000	1.63988E-001	0.00000E+000	9	...........	1467.34
	467	6.6846	1.67298E-001	-1.30036E-005	0.00000E+000	1.66988E-001	0.00000E+000	9	...........	1467.34
	470	6.72745	1.70302E-001	-1.28154E-005	0.00000E+000	1.69988E-001	0.00000E+000	9	...........	1467.34
	473	6.7703	1.73302E-001	-1.26735E-005	0.00000E+000	1.72988E-001	0.00000E+000	9	...........	1467.34
	476	6.81315	1.76302E-001	-1.25448E-005	0.00000E+000	1.75987E-001	0.00000E+000	9	...........	1467.34
	479	6.856	1.79308E-001	-1.23955E-005	0.00000E+000	1.78987E-001	0.00000E+000	9	...........	1467.34
	482	6.89885	1.82308E-001	-1.22121E-005	0.00000E+000	1.81987E-001	0.00000E+000	9	...........	1467.34
	485	6.9417	1.85308E-001	-1.20007E-005	0.00000E+000	1.84986E-001	0.00000E+000	9	...........	1467.34
	488	6.98455	1.88307E-001	-1.17806E-005	0.00000E+000	1.87986E-001	0.00000E+000	9	...........	1467.34
	491	7.0274	1.91308E-001	-1.15802E-005	0.00000E+000	1.90986E-001	0.00000E+000	9	...........	1467.34
	494	7.07025	1.94307E-001	-1.14171E-005	0.00000E+000	1.93985E-001	0.00000E+000	9	...........	1467.34
	497	7.1131	1.97310E-001	-1.12591E-005	0.00000E+000	1.96985E-001	0.00000E+000	9	...........	1467.34
	500	7.15595	2.00311E-001	-1.10759E-005	0.00000E+000	1.99985E-001	0.00000E+000	9	...........	1467.34
	503	7.1988	1.97343E-001	-1.74263E-005	0.00000E+000	1.96985E-001	0.00000E+000	9	...........	1467.34
	506	7.24165	1.94340E-001	-1.79401E-005	0.00000E+000	1.93985E-001	0.00000E+000	9	...........	1467.34
	509	7.2845	1.91340E-001	-1.82861E-005	0.00000E+000	1.90986E-001	0.00000E+000	9	...........	1467.34
	512	7.32735	1.88339E-001	-1.85785E-005	0.00000E+000	1.87986E-001	0.00000E+000	9	...........	1467.34
	515	7.3702	1.85339E-001	-1.88788E-005	0.00000E+000	1.84986E-001	0.00000E+000	9	...........	1467.34
	518	7.41305	1.82338E-001	-1.91396E-005	0.00000E+000	1.81987E-001	0.00000E+000	9	...........	1467.34
	521	7.4559	1.79338E-001	-1.93723E-005	0.00000E+000	1.78987E-001	0.00000E+000	9	...........	1467.34
	524	7.49875	1.76334E-001	-1.95502E-005	0.00000E+000	1.75987E-001	0.00000E+000	9	...........	1467.34
	527	7.5416	1.73336E-001	-1.97038E-005	0.00000E+000	1.72988E-001	0.00000E+000	9	...........	1467.34
	530	7.58445	1.70334E-001	-1.98201E-005	0.00000E+000	1.69988E-001	0.00000E+000	9	...........	1467.43
	533	7.6273	1.67330E-001	-1.99974E-005	0.00000E+000	1.66988E-001	0.00000E+000	9	...........	1467.43
	536	7.67015	1.64328E-001	-2.01849E-005	0.00000E+000	1.63988E-001	0.00000E+000	9	...........	1467.43
	539	7.713	1.61327E-001	-2.03642E-005	0.00000E+000	1.60989E-001	0.00000E+000	9	...........	1467.43
	542	7.75585	1.58325E-001	-2.05344E-005	0.00000E+000	1.57989E-001	0.00000E+000	9	...........	1467.43
	545	7.7987	1.55325E-001	-2.06741E-005	0.00000E+000	1.54989E-001	0.00000E+000	9	...........	1467.43
	548	7.84155	1.52324E-001	-2.07775E-005	0.00000E+000	1.51990E-001	0.00000E+000	9	...........	1467.43
	551	7.8844	1.49327E-001	-2.08901E-005	0.00000E+000	1.48990E-001	0.00000E+000	9	...........	1467.43
	554	7.92725	1.46327E-001	-2.10600E-005	0.00000E+000	1.45990E-001	0.00000E+000	9	...........	1467.43
	557	7.9701	1.43322E-001	-2.12404E-005	0.00000E+000	1.42991E-001	0.00000E+000	9	...........	1467.43
	560	8.01295	1.40323E-001	-2.14206E-005	0.00000E+000	1.39991E-001	0.00000E+000	9	...........	1467.43
	563	8.0558	1.37323E-001	-2.15901E-005	0.00000E+000	1.36991E-001	0.00000E+000	9	...........	1467.43
	566	8.09865	1.34323E-001	-2.17210E-005	0.00000E+000	1.33992E-001	0.00000E+000	9	...........	1467.43
	569	8.1415	1.31322E-001	-2.18343E-005	0.00000E+000	1.30992E-001	0.00000E+000	9	...........	1467.43
	572	8.18435	1.28324E-001	-2.19660E-005	0.00000E+000	1.27992E-001	0.00000E+000	9	...........	1467.43
	575	8.2272	1.25319E-001	-2.21554E-005	0.00000E+000	1.24992E-001	0.00000E+000	9	...........	1467.43
	578	8.27005	1.22320E-001	-2.23446E-005	0.00000E+000	1.21993E-001	0.00000E+000	9	...........	1467.43
	581	8.3129	1.19319E-001	-2.25403E-005	0.00000E+000	1.18993E-001	0.00000E+000	9	...........	1467.43
	584	8.35575	1.16316E-001	-2.27161E-005	0.00000E+000	1.15993E-001	0.00000E+000	9	...........	1467.43
	587	8.3986	1.13314E-001	-2.28781E-005	0.00000E+000	1.12994E-001	0.00000E+000	9	...........	1467.43
	590	8.44145	1.10314E-001	-2.30063E-005	0.00000E+000	1.09994E-001	0.00000E+000	9	...........	1467.43
	593	8.4843	1.07309E-001	-2.31770E-005	0.00000E+000	1.06994E-001	0.00000E+000	9	...........	1467.43
	596	8.52715	1.04311E-001	-2.33851E-005	0.00000E+000	1.03995E-001	0.00000E+000	9	...........	1467.43
	599	8.57	1.01311E-001	-2.36250E-005	0.00000E+000	1.00995E-001	0.00000E+000	9	...........	1467.43
	600	8.58428	1.00310E-001	-2.36271E-005	0.00000E+000	9.99950E-002	0.00000E+000	9	...........	1467.43
CURVE4	TABLE
	Pt	T	Vf	Im	Vu	Sig	Ach	IERange	Over	Temp
	#	s	V vs. Ref.	A	V	V	V	#	bits	deg C
	601	8.59857	1.00295E-001	-2.09102E-005	0.00000E+000	9.99950E-002	0.00000E+000	9	...........	1467.43