File: input/CV_ECSA_#1_#3.DTA
EXPLAIN
TAG	CV
TITLE	LABEL	ECSA	Test Identifier
DATE	LABEL	20.8.2024	Date
TIME	LABEL	8:37:12	Time
NOTES	NOTES	1	Notes...

PSTAT	PSTAT	IFC1010-36105	Potentiostat
VINIT	POTEN	-2.00000E-001	F	A Potential (V)
VLIMIT1	POTEN	0.00000E+000	F	A Potential (V)
VLIMIT2	POTEN	-2.00000E-001	F	A Potential (V)
VFINAL	POTEN	-2.00000E-001	F	A Potential (V)
SCANRATE	QUANT	3.00000E+001	A Real Number
STEPSIZE	QUANT	1.00000E+000	Step Size (mV)
CYCLES	IQUANT	3	Cycles (#)
IMODE	SELECTOR	1	I/E Range Mode
IRANGE	QUANT	3.00000E-001	Max Current (mA)
AREA	QUANT	1.00000E+000	Sample Area (cm^2)
EQDELAY	QUANT	0.00000E+000	Equil. Time (s)
IRCOMP	SELECTOR	0	IRComp
PFCOR	QUANT	5.00000E+001	PF Corr. (ohm)
SAMPLINGMODE	SELECTOR	2	Sampling Mode
EOC	QUANT	-0.1790659	Open Circuit (V)
ELECTRODETYPE	SELECTOR	0	Electrode Type
STRIPPING	TOGGLE	F	Used for Stripping
SEQUENCER	TOGGLE	TRUE	Run as Sequence
PSTATMODEL	IQUANT	64	Pstat Model
PSTATSECTION	LABEL	IFC1010-36105	Pstat Section
PSTATSERIALNO	LABEL	36105	Pstat Serial Number
CTRLMODE	IQUANT	1	Control Mode
ELECTROMETER	IQUANT	0	RE=0 or CS=1
IESTAB	IQUANT	2	I/E Stability
CASPEED	IQUANT	4	Control Amp Speed
CONVENTION	IQUANT	1	Current Convention
ICHRANGE	IQUANT	2	Ich Range
ICHRANGEMODE	TOGGLE	F	Ich Auto Range
ICHOFFSETENABLE	TOGGLE	F	Ich Offset Enable
ICHOFFSET	QUANT	0	Ich Offset (V)
ICHFILTER	IQUANT	3	Ich Filter
VCHRANGE	IQUANT	1	Vch Range
VCHRANGEMODE	TOGGLE	F	Vch Auto Range
VCHOFFSETENABLE	TOGGLE	F	Vch Offset Enable
VCHOFFSET	QUANT	0	Vch Offset (V)
VCHFILTER	IQUANT	3	Vch Filter
IERANGELOWERLIMIT	IQUANT	4	I/E Range Lower Limit
IERANGEMODE	TOGGLE	F	I/E AutoRange
IERANGE	IQUANT	9	I/E Range
ACHSELECT	IQUANT	0	Ach Select
ACHRANGE	IQUANT	2	Ach Range
ACHOFFSETENABLE	TOGGLE	F	Ach Offset Enable
ACHOFFSET	QUANT	0	Ach Offset (V)
ACHFILTER	IQUANT	1	Ach Filter
SENSECABLEID	IQUANT	13	Sense Cable ID
PWRCABLEID	IQUANT	13	Power Cable ID
DCCALDATE	LABEL	10/17/2023	DC Calibration Date
ACCALDATE	LABEL	6/2/2023	AC Calibration Date
FRAMEWORKVERSION	LABEL	7.10.3	Framework Version
INSTRUMENTVERSION	LABEL	4.91	Instrument Version
COMMVERSION	LABEL	3.10	Communications Version
CPUPLDVERSION	LABEL	2.22	CPU PLD Version
CTRLPLDVERSION	LABEL	0.00	CTRL PLD Version
PSTATPLDVERSION	LABEL	0.00	PSTAT PLD Version
CURVE1	TABLE
	Pt	T	Vf	Im	Vu	Sig	Ach	IERange	Over	Temp
	#	s	V vs. Ref.	A	V	V	V	#	bits	deg C
	0	0.033333	-2.00079E-001	-1.77776E-007	0.00000E+000	-1.99996E-001	0.00000E+000	9	...........	1489.15
	5	0.2	-1.95084E-001	8.98419E-007	0.00000E+000	-1.94995E-001	0.00000E+000	9	...........	1489.15
	10	0.366667	-1.90092E-001	9.88143E-007	0.00000E+000	-1.90006E-001	0.00000E+000	9	...........	1489.15
	15	0.533333	-1.85090E-001	1.06139E-006	0.00000E+000	-1.85005E-001	0.00000E+000	9	...........	1488.69
	20	0.7	-1.80089E-001	1.11870E-006	0.00000E+000	-1.80004E-001	0.00000E+000	9	...........	1488.69
	25	0.866667	-1.75087E-001	1.16468E-006	0.00000E+000	-1.75002E-001	0.00000E+000	9	...........	1488.69
	30	1.03333	-1.70084E-001	1.19347E-006	0.00000E+000	-1.70001E-001	0.00000E+000	9	...........	1488.69
	35	1.2	-1.65083E-001	1.21854E-006	0.00000E+000	-1.65000E-001	0.00000E+000	9	...........	1488.69
	40	1.36667	-1.60083E-001	1.23913E-006	0.00000E+000	-1.59998E-001	0.00000E+000	9	...........	1488.69
	45	1.53333	-1.55080E-001	1.25628E-006	0.00000E+000	-1.54997E-001	0.00000E+000	9	...........	1488.97
	50	1.7	-1.50079E-001	1.26169E-006	0.00000E+000	-1.49996E-001	0.00000E+000	9	...........	1488.97
	55	1.86667	-1.45076E-001	1.28795E-006	0.00000E+000	-1.44994E-001	0.00000E+000	9	...........	1488.97
	60	2.03333	-1.40088E-001	1.30020E-006	0.00000E+000	-1.40005E-001	0.00000E+000	9	...........	1488.97
	65	2.2	-1.35086E-001	1.31508E-006	0.00000E+000	-1.35004E-001	0.00000E+000	9	...........	1488.97
	70	2.36667	-1.30084E-001	1.32954E-006	0.00000E+000	-1.30003E-001	0.00000E+000	9	...........	1488.97
	75	2.53333	-1.25082E-001	1.33772E-006	0.00000E+000	-1.25001E-001	0.00000E+000	9	...........	1489.06
	80	2.7	-1.20077E-001	1.34031E-006	0.00000E+000	-1.20000E-001	0.00000E+000	9	...........	1489.06
	85	2.86667	-1.15077E-001	1.35841E-006	0.00000E+000	-1.14999E-001	0.00000E+000	9	...........	1489.06
	90	3.03333	-1.10072E-001	1.36675E-006	0.00000E+000	-1.09997E-001	0.00000E+000	9	...........	1489.06
	95	3.2	-1.05074E-001	1.37275E-006	0.00000E+000	-1.04996E-001	0.00000E+000	9	...........	1489.06
	100	3.36667	-1.00070E-001	1.38113E-006	0.00000E+000	-9.99947E-002	0.00000E+000	9	...........	1489.06
	105	3.53333	-9.50789E-002	1.39220E-006	0.00000E+000	-9.50058E-002	0.00000E+000	9	...........	1488.69
	110	3.7	-9.00783E-002	1.40073E-006	0.00000E+000	-9.00045E-002	0.00000E+000	9	...........	1488.69
	115	3.86667	-8.50779E-002	1.41442E-006	0.00000E+000	-8.50032E-002	0.00000E+000	9	...........	1488.69
	120	4.03333	-8.00785E-002	1.41262E-006	0.00000E+000	-8.00018E-002	0.00000E+000	9	...........	1488.69
	125	4.2	-7.50733E-002	1.43234E-006	0.00000E+000	-7.50005E-002	0.00000E+000	9	...........	1488.69
	130	4.36667	-7.00714E-002	1.44185E-006	0.00000E+000	-6.99992E-002	0.00000E+000	9	...........	1488.69
	135	4.53333	-6.50695E-002	1.45199E-006	0.00000E+000	-6.49978E-002	0.00000E+000	9	...........	1488.69
	140	4.7	-6.00687E-002	1.46304E-006	0.00000E+000	-5.99965E-002	0.00000E+000	9	...........	1488.69
	145	4.86667	-5.50655E-002	1.47037E-006	0.00000E+000	-5.49951E-002	0.00000E+000	9	...........	1488.69
	150	5.03333	-5.00724E-002	1.47898E-006	0.00000E+000	-5.00063E-002	0.00000E+000	9	...........	1488.69
	155	5.2	-4.50720E-002	1.51002E-006	0.00000E+000	-4.50050E-002	0.00000E+000	9	...........	1488.69
	160	5.36667	-4.00707E-002	1.51717E-006	0.00000E+000	-4.00036E-002	0.00000E+000	9	...........	1488.69
	165	5.53333	-3.50690E-002	1.52705E-006	0.00000E+000	-3.50023E-002	0.00000E+000	9	...........	1488.69
	170	5.7	-3.00623E-002	1.55558E-006	0.00000E+000	-3.00010E-002	0.00000E+000	9	...........	1488.69
	175	5.86667	-2.50588E-002	1.57033E-006	0.00000E+000	-2.49996E-002	0.00000E+000	9	...........	1488.69
	180	6.03333	-2.00572E-002	1.58752E-006	0.00000E+000	-1.99983E-002	0.00000E+000	9	...........	1488.69
	185	6.2	-1.50542E-002	1.60270E-006	0.00000E+000	-1.49970E-002	0.00000E+000	9	...........	1488.69
	190	6.36667	-1.00489E-002	1.63207E-006	0.00000E+000	-9.99562E-003	0.00000E+000	9	...........	1488.69
	195	6.53333	-5.04725E-003	1.65148E-006	0.00000E+000	-4.99428E-003	0.00000E+000	9	...........	1489.06
	200	6.7	-5.76455E-005	1.68556E-006	0.00000E+000	-5.44637E-006	0.00000E+000	9	...........	1489.06
	205	6.86667	-5.03300E-003	1.46707E-007	0.00000E+000	-4.99428E-003	0.00000E+000	9	...........	1489.06
	210	7.03333	-1.00358E-002	5.49470E-008	0.00000E+000	-9.99562E-003	0.00000E+000	9	...........	1489.06
	215	7.2	-1.50418E-002	9.02662E-010	0.00000E+000	-1.49970E-002	0.00000E+000	9	...........	1489.06
	220	7.36667	-2.00441E-002	-3.97349E-008	0.00000E+000	-1.99983E-002	0.00000E+000	9	...........	1489.06
	225	7.53333	-2.50468E-002	-8.86537E-008	0.00000E+000	-2.49996E-002	0.00000E+000	9	...........	1488.69
	230	7.7	-3.00502E-002	-1.26520E-007	0.00000E+000	-3.00010E-002	0.00000E+000	9	...........	1488.69
	235	7.86667	-3.50542E-002	-1.49527E-007	0.00000E+000	-3.50023E-002	0.00000E+000	9	...........	1488.69
	240	8.03333	-4.00569E-002	-1.83169E-007	0.00000E+000	-4.00036E-002	0.00000E+000	9	...........	1488.69
	245	8.2	-4.50603E-002	-2.09197E-007	0.00000E+000	-4.50050E-002	0.00000E+000	9	...........	1488.69
	250	8.36667	-5.00594E-002	-2.35927E-007	0.00000E+000	-5.00063E-002	0.00000E+000	9	...........	1488.69
	255	8.53333	-5.50511E-002	-2.59836E-007	0.00000E+000	-5.49951E-002	0.00000E+000	9	...........	1489.06
	260	8.7	-6.00547E-002	-2.86850E-007	0.00000E+000	-5.99965E-002	0.00000E+000	9	...........	1489.06
	265	8.86667	-6.50585E-002	-3.04163E-007	0.00000E+000	-6.49978E-002	0.00000E+000	9	...........	1489.06
	270	9.03333	-7.00585E-002	-3.35000E-007	0.00000E+000	-6.99992E-002	0.00000E+000	9	...........	1489.06
	275	9.2	-7.50611E-002	-3.53950E-007	0.00000E+000	-7.50005E-002	0.00000E+000	9	...........	1489.06
	280	9.36667	-8.00675E-002	-3.78994E-007	0.00000E+000	-8.00018E-002	0.00000E+000	9	...........	1489.06
	285	9.5333	-8.50645E-002	-3.95456E-007	0.00000E+000	-8.50032E-002	0.00000E+000	9	...........	1488.69
	290	9.7	-9.00672E-002	-4.20650E-007	0.00000E+000	-9.00045E-002	0.00000E+000	9	...........	1488.69
	295	9.8667	-9.50671E-002	-4.42521E-007	0.00000E+000	-9.50058E-002	0.00000E+000	9	...........	1488.69
	300	10.0333	-1.00060E-001	-4.50502E-007	0.00000E+000	-9.99947E-002	0.00000E+000	9	...........	1488.69
	305	10.2	-1.05062E-001	-4.76514E-007	0.00000E+000	-1.04996E-001	0.00000E+000	9	...........	1488.69
	310	10.3667	-1.10061E-001	-4.98970E-007	0.00000E+000	-1.09997E-001	0.00000E+000	9	...........	1488.69
	315	10.5333	-1.15064E-001	-5.15449E-007	0.00000E+000	-1.14999E-001	0.00000E+000	9	...........	1489.15
	320	10.7	-1.20065E-001	-5.31961E-007	0.00000E+000	-1.20000E-001	0.00000E+000	9	...........	1489.15
	325	10.8667	-1.25069E-001	-5.63983E-007	0.00000E+000	-1.25001E-001	0.00000E+000	9	...........	1489.15
	330	11.0333	-1.30073E-001	-5.86489E-007	0.00000E+000	-1.30003E-001	0.00000E+000	9	...........	1489.15
	335	11.2	-1.35073E-001	-6.08227E-007	0.00000E+000	-1.35004E-001	0.00000E+000	9	...........	1489.15
	340	11.3667	-1.40074E-001	-6.29548E-007	0.00000E+000	-1.40005E-001	0.00000E+000	9	...........	1489.15
	345	11.5333	-1.45063E-001	-6.56946E-007	0.00000E+000	-1.44994E-001	0.00000E+000	9	...........	1488.69
	350	11.7	-1.50067E-001	-6.90004E-007	0.00000E+000	-1.49996E-001	0.00000E+000	9	...........	1488.69
	355	11.8667	-1.55068E-001	-7.14146E-007	0.00000E+000	-1.54997E-001	0.00000E+000	9	...........	1488.69
	360	12.0333	-1.60069E-001	-7.46001E-007	0.00000E+000	-1.59998E-001	0.00000E+000	9	...........	1488.69
	365	12.2	-1.65070E-001	-7.73683E-007	0.00000E+000	-1.65000E-001	0.00000E+000	9	...........	1488.69
	370	12.3667	-1.70072E-001	-8.15639E-007	0.00000E+000	-1.70001E-001	0.00000E+000	9	...........	1488.69
	375	12.5333	-1.75074E-001	-8.64508E-007	0.00000E+000	-1.75002E-001	0.00000E+000	9	...........	1489.15
	380	12.7	-1.80077E-001	-9.02875E-007	0.00000E+000	-1.80004E-001	0.00000E+000	9	...........	1489.15
	385	12.8667	-1.85078E-001	-9.66252E-007	0.00000E+000	-1.85005E-001	0.00000E+000	9	...........	1489.15
	390	13.0333	-1.90081E-001	-1.02644E-006	0.00000E+000	-1.90006E-001	0.00000E+000	9	...........	1489.15
	395	13.2	-1.95072E-001	-1.09536E-006	0.00000E+000	-1.94995E-001	0.00000E+000	9	...........	1489.15
	400	13.3667	-2.00074E-001	-1.19362E-006	0.00000E+000	-1.99996E-001	0.00000E+000	9	...........	1489.15
CURVE2	TABLE
	Pt	T	Vf	Im	Vu	Sig	Ach	IERange	Over	Temp
	#	s	V vs. Ref.	A	V	V	V	#	bits	deg C
	401	13.4	-1.99086E-001	6.01284E-007	0.00000E+000	-1.98996E-001	0.00000E+000	9	...........	1489.15
	406	13.5667	-1.94083E-001	8.52222E-007	0.00000E+000	-1.93995E-001	0.00000E+000	9	...........	1488.69
	411	13.7333	-1.89093E-001	9.58207E-007	0.00000E+000	-1.89006E-001	0.00000E+000	9	...........	1488.69
	416	13.9	-1.84091E-001	1.03743E-006	0.00000E+000	-1.84005E-001	0.00000E+000	9	...........	1488.69
	421	14.0667	-1.79090E-001	1.08950E-006	0.00000E+000	-1.79003E-001	0.00000E+000	9	...........	1488.69
	426	14.2333	-1.74086E-001	1.13039E-006	0.00000E+000	-1.74002E-001	0.00000E+000	9	...........	1488.69
	431	14.4	-1.69083E-001	1.16011E-006	0.00000E+000	-1.69001E-001	0.00000E+000	9	...........	1488.69
	436	14.5667	-1.64083E-001	1.19095E-006	0.00000E+000	-1.63999E-001	0.00000E+000	9	...........	1489.15
	441	14.7333	-1.59080E-001	1.21327E-006	0.00000E+000	-1.58998E-001	0.00000E+000	9	...........	1489.15
	446	14.9	-1.54080E-001	1.22986E-006	0.00000E+000	-1.53997E-001	0.00000E+000	9	...........	1489.15
	451	15.0667	-1.49080E-001	1.24197E-006	0.00000E+000	-1.48995E-001	0.00000E+000	9	...........	1489.15
	456	15.2333	-1.44075E-001	1.25982E-006	0.00000E+000	-1.43994E-001	0.00000E+000	9	...........	1489.15
	461	15.4	-1.39084E-001	1.27651E-006	0.00000E+000	-1.39005E-001	0.00000E+000	9	...........	1489.15
	466	15.5667	-1.34086E-001	1.28324E-006	0.00000E+000	-1.34004E-001	0.00000E+000	9	...........	1488.69
	471	15.7333	-1.29085E-001	1.29429E-006	0.00000E+000	-1.29002E-001	0.00000E+000	9	...........	1488.69
	476	15.9	-1.24080E-001	1.30057E-006	0.00000E+000	-1.24001E-001	0.00000E+000	9	...........	1488.69
	481	16.0667	-1.19078E-001	1.31288E-006	0.00000E+000	-1.19000E-001	0.00000E+000	9	...........	1488.69
	486	16.2333	-1.14077E-001	1.32819E-006	0.00000E+000	-1.13998E-001	0.00000E+000	9	...........	1488.69
	491	16.4	-1.09074E-001	1.33760E-006	0.00000E+000	-1.08997E-001	0.00000E+000	9	...........	1488.69
	496	16.5667	-1.04073E-001	1.34709E-006	0.00000E+000	-1.03996E-001	0.00000E+000	9	...........	1489.15
	501	16.7333	-9.90731E-002	1.35186E-006	0.00000E+000	-9.89944E-002	0.00000E+000	9	...........	1489.15
	506	16.9	-9.40823E-002	1.36480E-006	0.00000E+000	-9.40056E-002	0.00000E+000	9	...........	1489.15
	511	17.0667	-8.90793E-002	1.36959E-006	0.00000E+000	-8.90042E-002	0.00000E+000	9	...........	1489.15
	516	17.2333	-8.40779E-002	1.38126E-006	0.00000E+000	-8.40029E-002	0.00000E+000	9	...........	1489.15
	521	17.4	-7.90766E-002	1.39676E-006	0.00000E+000	-7.90016E-002	0.00000E+000	9	...........	1489.15
	526	17.5667	-7.40760E-002	1.39535E-006	0.00000E+000	-7.40002E-002	0.00000E+000	9	...........	1488.69
	531	17.7333	-6.90688E-002	1.41848E-006	0.00000E+000	-6.89989E-002	0.00000E+000	9	...........	1488.69
	536	17.9	-6.40685E-002	1.42943E-006	0.00000E+000	-6.39976E-002	0.00000E+000	9	...........	1488.69
	541	18.0667	-5.90661E-002	1.44930E-006	0.00000E+000	-5.89962E-002	0.00000E+000	9	...........	1488.69
	546	18.2333	-5.40645E-002	1.45930E-006	0.00000E+000	-5.39949E-002	0.00000E+000	9	...........	1488.69
	551	18.4	-4.90721E-002	1.47401E-006	0.00000E+000	-4.90060E-002	0.00000E+000	9	...........	1488.69
	556	18.5667	-4.40706E-002	1.48628E-006	0.00000E+000	-4.40047E-002	0.00000E+000	9	...........	1489.15
	561	18.7333	-3.90686E-002	1.50197E-006	0.00000E+000	-3.90034E-002	0.00000E+000	9	...........	1489.15
	566	18.9	-3.40651E-002	1.51326E-006	0.00000E+000	-3.40020E-002	0.00000E+000	9	...........	1489.15
	571	19.0667	-2.90625E-002	1.53618E-006	0.00000E+000	-2.90007E-002	0.00000E+000	9	...........	1489.15
	576	19.2333	-2.40555E-002	1.55543E-006	0.00000E+000	-2.39994E-002	0.00000E+000	9	...........	1489.15
	581	19.4	-1.90526E-002	1.56907E-006	0.00000E+000	-1.89980E-002	0.00000E+000	9	...........	1489.15
	586	19.5667	-1.40509E-002	1.58892E-006	0.00000E+000	-1.39967E-002	0.00000E+000	9	...........	1488.69
	591	19.7333	-9.04654E-003	1.62303E-006	0.00000E+000	-8.99535E-003	0.00000E+000	9	...........	1488.69
	596	19.9	-4.04145E-003	1.64028E-006	0.00000E+000	-3.99401E-003	0.00000E+000	9	...........	1488.69
	601	20.0667	-1.04480E-003	2.71425E-007	0.00000E+000	-1.00572E-003	0.00000E+000	9	...........	1488.69
	606	20.2333	-6.03564E-003	9.05258E-008	0.00000E+000	-5.99455E-003	0.00000E+000	9	...........	1488.69
	611	20.4	-1.10370E-002	2.23401E-008	0.00000E+000	-1.09959E-002	0.00000E+000	9	...........	1488.69
	616	20.5667	-1.60404E-002	-2.86322E-008	0.00000E+000	-1.59972E-002	0.00000E+000	9	...........	1489.15
	621	20.7333	-2.10435E-002	-7.40949E-008	0.00000E+000	-2.09986E-002	0.00000E+000	9	...........	1489.15
	626	20.9	-2.60474E-002	-1.18372E-007	0.00000E+000	-2.59999E-002	0.00000E+000	9	...........	1489.15
	631	21.0667	-3.10473E-002	-1.47456E-007	0.00000E+000	-3.10012E-002	0.00000E+000	9	...........	1489.15
	636	21.2333	-3.60515E-002	-1.78327E-007	0.00000E+000	-3.60026E-002	0.00000E+000	9	...........	1489.15
	641	21.4	-4.10562E-002	-2.03638E-007	0.00000E+000	-4.10039E-002	0.00000E+000	9	...........	1489.15
	646	21.5667	-4.60607E-002	-2.30201E-007	0.00000E+000	-4.60052E-002	0.00000E+000	9	...........	1488.78
	651	21.7333	-5.10500E-002	-2.45110E-007	0.00000E+000	-5.09941E-002	0.00000E+000	9	...........	1488.78
	656	21.9	-5.60521E-002	-2.75764E-007	0.00000E+000	-5.59954E-002	0.00000E+000	9	...........	1488.78
	661	22.0667	-6.10559E-002	-2.98303E-007	0.00000E+000	-6.09967E-002	0.00000E+000	9	...........	1488.78
	666	22.2333	-6.60587E-002	-3.26519E-007	0.00000E+000	-6.59981E-002	0.00000E+000	9	...........	1488.78
	671	22.4	-7.10634E-002	-3.51162E-007	0.00000E+000	-7.09994E-002	0.00000E+000	9	...........	1488.78
	676	22.5667	-7.60634E-002	-3.70529E-007	0.00000E+000	-7.60008E-002	0.00000E+000	9	...........	1489.15
	681	22.7333	-8.10662E-002	-3.90547E-007	0.00000E+000	-8.10021E-002	0.00000E+000	9	...........	1489.15
	686	22.9	-8.60654E-002	-4.14990E-007	0.00000E+000	-8.60034E-002	0.00000E+000	9	...........	1489.15
	691	23.0667	-9.10683E-002	-4.30300E-007	0.00000E+000	-9.10048E-002	0.00000E+000	9	...........	1489.15
	696	23.2333	-9.60715E-002	-4.47313E-007	0.00000E+000	-9.60061E-002	0.00000E+000	9	...........	1489.15
	701	23.4	-1.01058E-001	-4.60486E-007	0.00000E+000	-1.00995E-001	0.00000E+000	9	...........	1489.15
	706	23.5667	-1.06063E-001	-4.90221E-007	0.00000E+000	-1.05996E-001	0.00000E+000	9	...........	1488.69
	711	23.7333	-1.11066E-001	-5.03945E-007	0.00000E+000	-1.10998E-001	0.00000E+000	9	...........	1488.69
	716	23.9	-1.16066E-001	-5.28572E-007	0.00000E+000	-1.15999E-001	0.00000E+000	9	...........	1488.69
	721	24.0667	-1.21069E-001	-5.48306E-007	0.00000E+000	-1.21000E-001	0.00000E+000	9	...........	1488.69
	726	24.2333	-1.26069E-001	-5.65302E-007	0.00000E+000	-1.26002E-001	0.00000E+000	9	...........	1488.69
[...]
	800	26.7	-2.00076E-001	-1.18877E-006	0.00000E+000	-1.99996E-001	0.00000E+000	9	...........	1488.69
CURVE3	TABLE
	Pt	T	Vf	Im	Vu	Sig	Ach	IERange	Over	Temp
	#	s	V vs. Ref.	A	V	V	V	#	bits	deg C
	801	26.7333	-1.99089E-001	5.98129E-007	0.00000E+000	-1.98996E-001	0.00000E+000	9	...........	1488.69
	806	26.9	-1.94085E-001	8.49284E-007	0.00000E+000	-1.93995E-001	0.00000E+000	9	...........	1488.69
	811	27.0667	-1.89094E-001	9.54584E-007	0.00000E+000	-1.89006E-001	0.00000E+000	9	...........	1488.69
	816	27.2333	-1.84090E-001	1.02866E-006	0.00000E+000	-1.84005E-001	0.00000E+000	9	...........	1488.69
	821	27.4	-1.79091E-001	1.08383E-006	0.00000E+000	-1.79003E-001	0.00000E+000	9	...........	1488.69
	826	27.5667	-1.74088E-001	1.13056E-006	0.00000E+000	-1.74002E-001	0.00000E+000	9	...........	1488.69
	831	27.7333	-1.69085E-001	1.16509E-006	0.00000E+000	-1.69001E-001	0.00000E+000	9	...........	1488.69
	836	27.9	-1.64083E-001	1.18829E-006	0.00000E+000	-1.63999E-001	0.00000E+000	9	...........	1488.69
	841	28.0667	-1.59079E-001	1.20497E-006	0.00000E+000	-1.58998E-001	0.00000E+000	9	...........	1488.69
	846	28.2333	-1.54077E-001	1.23768E-006	0.00000E+000	-1.53997E-001	0.00000E+000	9	...........	1488.69
	851	28.4	-1.49079E-001	1.24861E-006	0.00000E+000	-1.48995E-001	0.00000E+000	9	...........	1488.69
	856	28.5667	-1.44077E-001	1.25725E-006	0.00000E+000	-1.43994E-001	0.00000E+000	9	...........	1488.69
	861	28.7333	-1.39088E-001	1.27476E-006	0.00000E+000	-1.39005E-001	0.00000E+000	9	...........	1488.69
	866	28.9	-1.34085E-001	1.28523E-006	0.00000E+000	-1.34004E-001	0.00000E+000	9	...........	1488.69
	871	29.0667	-1.29084E-001	1.29147E-006	0.00000E+000	-1.29002E-001	0.00000E+000	9	...........	1488.69
	876	29.2333	-1.24083E-001	1.30114E-006	0.00000E+000	-1.24001E-001	0.00000E+000	9	...........	1488.69
	881	29.4	-1.19081E-001	1.31049E-006	0.00000E+000	-1.19000E-001	0.00000E+000	9	...........	1488.69
	886	29.5667	-1.14076E-001	1.32293E-006	0.00000E+000	-1.13998E-001	0.00000E+000	9	...........	1488.69
	891	29.7333	-1.09074E-001	1.33460E-006	0.00000E+000	-1.08997E-001	0.00000E+000	9	...........	1488.69
	896	29.9	-1.04075E-001	1.34368E-006	0.00000E+000	-1.03996E-001	0.00000E+000	9	...........	1488.69
	901	30.0667	-9.90730E-002	1.35341E-006	0.00000E+000	-9.89944E-002	0.00000E+000	9	...........	1488.69
	906	30.2333	-9.40805E-002	1.36200E-006	0.00000E+000	-9.40056E-002	0.00000E+000	9	...........	1488.69
	911	30.4	-8.90807E-002	1.37590E-006	0.00000E+000	-8.90042E-002	0.00000E+000	9	...........	1488.69
	916	30.5667	-8.40777E-002	1.38382E-006	0.00000E+000	-8.40029E-002	0.00000E+000	9	...........	1488.69
	921	30.7333	-7.90802E-002	1.39360E-006	0.00000E+000	-7.90016E-002	0.00000E+000	9	...........	1488.69
	926	30.9	-7.40756E-002	1.39814E-006	0.00000E+000	-7.40002E-002	0.00000E+000	9	...........	1488.69
	931	31.0667	-6.90699E-002	1.42041E-006	0.00000E+000	-6.89989E-002	0.00000E+000	9	...........	1488.69
	936	31.2333	-6.40676E-002	1.42826E-006	0.00000E+000	-6.39976E-002	0.00000E+000	9	...........	1488.69
	941	31.4	-5.90659E-002	1.43035E-006	0.00000E+000	-5.89962E-002	0.00000E+000	9	...........	1488.69
	946	31.5667	-5.40636E-002	1.45160E-006	0.00000E+000	-5.39949E-002	0.00000E+000	9	...........	1488.69
	951	31.7333	-4.90735E-002	1.45753E-006	0.00000E+000	-4.90060E-002	0.00000E+000	9	...........	1488.69
	956	31.9	-4.40715E-002	1.47449E-006	0.00000E+000	-4.40047E-002	0.00000E+000	9	...........	1488.69
	961	32.0667	-3.90697E-002	1.48366E-006	0.00000E+000	-3.90034E-002	0.00000E+000	9	...........	1488.69
	966	32.2333	-3.40659E-002	1.50244E-006	0.00000E+000	-3.40020E-002	0.00000E+000	9	...........	1488.69
	971	32.4	-2.90624E-002	1.52167E-006	0.00000E+000	-2.90007E-002	0.00000E+000	9	...........	1488.69
	976	32.5667	-2.40566E-002	1.53864E-006	0.00000E+000	-2.39994E-002	0.00000E+000	9	...........	1488.69
	981	32.7333	-1.90540E-002	1.56447E-006	0.00000E+000	-1.89980E-002	0.00000E+000	9	...........	1488.69
	986	32.9	-1.40522E-002	1.57418E-006	0.00000E+000	-1.39967E-002	0.00000E+000	9	...........	1488.69
	991	33.0667	-9.04959E-003	1.59303E-006	0.00000E+000	-8.99535E-003	0.00000E+000	9	...........	1488.69
	996	33.2333	-4.04601E-003	1.62659E-006	0.00000E+000	-3.99401E-003	0.00000E+000	9	...........	1488.69
	1001	33.4	-1.04653E-003	2.56532E-007	0.00000E+000	-1.00572E-003	0.00000E+000	9	...........	1488.69
	1006	33.5667	-6.03596E-003	9.40653E-008	0.00000E+000	-5.99455E-003	0.00000E+000	9	...........	1488.69
	1011	33.7333	-1.10375E-002	2.06705E-008	0.00000E+000	-1.09959E-002	0.00000E+000	9	...........	1488.69
	1016	33.9	-1.60416E-002	-2.73967E-008	0.00000E+000	-1.59972E-002	0.00000E+000	9	...........	1488.69
	1021	34.0667	-2.10461E-002	-7.06055E-008	0.00000E+000	-2.09986E-002	0.00000E+000	9	...........	1488.69
	1026	34.2333	-2.60493E-002	-1.12111E-007	0.00000E+000	-2.59999E-002	0.00000E+000	9	...........	1488.69
	1031	34.4	-3.10491E-002	-1.35402E-007	0.00000E+000	-3.10012E-002	0.00000E+000	9	...........	1488.69
	1036	34.5667	-3.60501E-002	-1.68760E-007	0.00000E+000	-3.60026E-002	0.00000E+000	9	...........	1488.69
	1041	34.7333	-4.10555E-002	-1.95524E-007	0.00000E+000	-4.10039E-002	0.00000E+000	9	...........	1488.69
	1046	34.9	-4.60605E-002	-2.33991E-007	0.00000E+000	-4.60052E-002	0.00000E+000	9	...........	1488.69
	1051	35.0667	-5.10496E-002	-2.55729E-007	0.00000E+000	-5.09941E-002	0.00000E+000	9	...........	1488.69
	1056	35.2333	-5.60519E-002	-2.84078E-007	0.00000E+000	-5.59954E-002	0.00000E+000	9	...........	1488.69
	1061	35.4	-6.10544E-002	-3.05031E-007	0.00000E+000	-6.09967E-002	0.00000E+000	9	...........	1488.69
	1066	35.5667	-6.60586E-002	-3.22362E-007	0.00000E+000	-6.59981E-002	0.00000E+000	9	...........	1488.69
	1071	35.7333	-7.10617E-002	-3.39658E-007	0.00000E+000	-7.09994E-002	0.00000E+000	9	...........	1488.69
	1076	35.9	-7.60623E-002	-3.60044E-007	0.00000E+000	-7.60008E-002	0.00000E+000	9	...........	1488.69
	1081	36.0667	-8.10653E-002	-3.73351E-007	0.00000E+000	-8.10021E-002	0.00000E+000	9	...........	1488.69
	1086	36.2333	-8.60642E-002	-4.00331E-007	0.00000E+000	-8.60034E-002	0.00000E+000	9	...........	1488.69
	1091	36.4	-9.10665E-002	-4.20783E-007	0.00000E+000	-9.10048E-002	0.00000E+000	9	...........	1488.69
	1096	36.5667	-9.60700E-002	-4.39583E-007	0.00000E+000	-9.60061E-002	0.00000E+000	9	...........	1488.69
	1101	36.7333	-1.01058E-001	-4.57765E-007	0.00000E+000	-1.00995E-001	0.00000E+000	9	...........	1488.69
	1106	36.9	-1.06062E-001	-4.71205E-007	0.00000E+000	-1.05996E-001	0.00000E+000	9	...........	1488.69
	1111	37.0667	-1.11062E-001	-4.95197E-007	0.00000E+000	-1.10998E-001	0.00000E+000	9	...........	1488.69
	1116	37.2333	-1.16064E-001	-5.15733E-007	0.00000E+000	-1.15999E-001	0.00000E+000	9	...........	1488.69
	1121	37.4	-1.21067E-001	-5.37220E-007	0.00000E+000	-1.21000E-001	0.00000E+000	9	...........	1488.69
	1126	37.5667	-1.26067E-001	-5.54500E-007	0.00000E+000	-1.26002E-001	0.00000E+000	9	...........	1488.69
	1131	37.7333	-1.31071E-001	-5.79627E-007	0.00000E+000	-1.31003E-001	0.00000E+000	9	...........	1488.69
	1136	37.9	-1.36072E-001	-5.97959E-007	0.00000E+000	-1.36004E-001	0.00000E+000	9	...........	1488.69
	1141	38.0667	-1.41074E-001	-6.27427E-007	0.00000E+000	-1.41006E-001	0.00000E+000	9	...........	1488.69
	1146	38.2333	-1.46064E-001	-6.50785E-007	0.00000E+000	-1.45994E-001	0.00000E+000	9	...........	1488.69
	1151	38.4	-1.51067E-001	-6.74343E-007	0.00000E+000	-1.50996E-001	0.00000E+000	9	...........	1488.69
	1156	38.5667	-1.56070E-001	-7.12877E-007	0.00000E+000	-1.55997E-001	0.00000E+000	9	...........	1488.69
	1161	38.7333	-1.61071E-001	-7.35099E-007	0.00000E+000	-1.60998E-001	0.00000E+000	9	...........	1488.69
	1166	38.9	-1.66069E-001	-7.73299E-007	0.00000E+000	-1.66000E-001	0.00000E+000	9	...........	1488.69
	1171	39.0667	-1.71072E-001	-8.14905E-007	0.00000E+000	-1.71001E-001	0.00000E+000	9	...........	1488.69
	1176	39.2333	-1.76075E-001	-8.63940E-007	0.00000E+000	-1.76002E-001	0.00000E+000	9	...........	1488.69
	1181	39.4	-1.81079E-001	-8.98100E-007	0.00000E+000	-1.81004E-001	0.00000E+000	9	...........	1488.69
	1186	39.5667	-1.86077E-001	-9.57721E-007	0.00000E+000	-1.86005E-001	0.00000E+000	9	...........	1488.78
	1191	39.7333	-1.91067E-001	-1.00848E-006	0.00000E+000	-1.90994E-001	0.00000E+000	9	...........	1488.78
	1196	39.9	-1.96070E-001	-1.09598E-006	0.00000E+000	-1.95995E-001	0.00000E+000	9	...........	1488.78
	1200	40.0333	-2.00075E-001	-1.17328E-006	0.00000E+000	-1.99996E-001	0.00000E+000	9	...........	1488.78
CURVE4	TABLE
	Pt	T	Vf	Im	Vu	Sig	Ach	IERange	Over	Temp
	#	s	V vs. Ref.	A	V	V	V	#	bits	deg C
	1201	40.0667	-2.00082E-001	-2.85163E-007	0.00000E+000	-1.99996E-001	0.00000E+000	9	...........	1488.78