File: input/CV_ECSA_#1_#10.DTA
EXPLAIN
TAG	CV
TITLE	LABEL	ECSA	Test Identifier
DATE	LABEL	20.8.2024	Date
TIME	LABEL	8:39:53	Time
NOTES	NOTES	1	Notes...

PSTAT	PSTAT	IFC1010-36105	Potentiostat
VINIT	POTEN	-2.00000E-001	F	A Potential (V)
VLIMIT1	POTEN	0.00000E+000	F	A Potential (V)
VLIMIT2	POTEN	-2.00000E-001	F	A Potential (V)
VFINAL	POTEN	-2.00000E-001	F	A Potential (V)
SCANRATE	QUANT	9.99548E+001	A Real Number
STEPSIZE	QUANT	1.00000E+000	Step Size (mV)
CYCLES	IQUANT	3	Cycles (#)
IMODE	SELECTOR	1	I/E Range Mode
IRANGE	QUANT	3.00000E-001	Max Current (mA)
AREA	QUANT	1.00000E+000	Sample Area (cm^2)
EQDELAY	QUANT	0.00000E+000	Equil. Time (s)
IRCOMP	SELECTOR	0	IRComp
PFCOR	QUANT	5.00000E+001	PF Corr. (ohm)
SAMPLINGMODE	SELECTOR	2	Sampling Mode
EOC	QUANT	-0.1790659	Open Circuit (V)
ELECTRODETYPE	SELECTOR	0	Electrode Type
STRIPPING	TOGGLE	F	Used for Stripping
SEQUENCER	TOGGLE	TRUE	Run as Sequence
PSTATMODEL	IQUANT	64	Pstat Model
PSTATSECTION	LABEL	IFC1010-36105	Pstat Section
PSTATSERIALNO	LABEL	36105	Pstat Serial Number
CTRLMODE	IQUANT	1	Control Mode
ELECTROMETER	IQUANT	0	RE=0 or CS=1
IESTAB	IQUANT	2	I/E Stability
CASPEED	IQUANT	4	Control Amp Speed
CONVENTION	IQUANT	1	Current Convention
ICHRANGE	IQUANT	2	Ich Range
ICHRANGEMODE	TOGGLE	F	Ich Auto Range
ICHOFFSETENABLE	TOGGLE	F	Ich Offset Enable
ICHOFFSET	QUANT	0	Ich Offset (V)
ICHFILTER	IQUANT	3	Ich Filter
VCHRANGE	IQUANT	1	Vch Range
VCHRANGEMODE	TOGGLE	F	Vch Auto Range
VCHOFFSETENABLE	TOGGLE	F	Vch Offset Enable
VCHOFFSET	QUANT	0	Vch Offset (V)
VCHFILTER	IQUANT	3	Vch Filter
IERANGELOWERLIMIT	IQUANT	4	I/E Range Lower Limit
IERANGEMODE	TOGGLE	F	I/E AutoRange
IERANGE	IQUANT	9	I/E Range
ACHSELECT	IQUANT	0	Ach Select
ACHRANGE	IQUANT	2	Ach Range
ACHOFFSETENABLE	TOGGLE	F	Ach Offset Enable
ACHOFFSET	QUANT	0	Ach Offset (V)
ACHFILTER	IQUANT	1	Ach Filter
SENSECABLEID	IQUANT	13	Sense Cable ID
PWRCABLEID	IQUANT	13	Power Cable ID
DCCALDATE	LABEL	10/17/2023	DC Calibration Date
ACCALDATE	LABEL	6/2/2023	AC Calibration Date
FRAMEWORKVERSION	LABEL	7.10.3	Framework Version
INSTRUMENTVERSION	LABEL	4.91	Instrument Version
COMMVERSION	LABEL	3.10	Communications Version
CPUPLDVERSION	LABEL	2.22	CPU PLD Version
CTRLPLDVERSION	LABEL	0.00	CTRL PLD Version
PSTATPLDVERSION	LABEL	0.00	PSTAT PLD Version
CURVE1	TABLE
	Pt	T	Vf	Im	Vu	Sig	Ach	IERange	Over	Temp
	#	s	V vs. Ref.	A	V	V	V	#	bits	deg C
	0	0.01	-2.00079E-001	-4.33918E-007	0.00000E+000	-1.99996E-001	0.00000E+000	9	...........	1488.97
	4	0.05	-1.96114E-001	2.61618E-006	0.00000E+000	-1.96008E-001	0.00000E+000	9	...........	1488.97
	8	0.09	-1.92112E-001	2.82342E-006	0.00000E+000	-1.92007E-001	0.00000E+000	9	...........	1488.83
	12	0.13	-1.88111E-001	2.92400E-006	0.00000E+000	-1.88006E-001	0.00000E+000	9	...........	1488.78
	16	0.17	-1.84106E-001	2.98893E-006	0.00000E+000	-1.84005E-001	0.00000E+000	9	...........	1488.78
	20	0.21	-1.80105E-001	3.04516E-006	0.00000E+000	-1.80004E-001	0.00000E+000	9	...........	1488.78
	24	0.25	-1.76116E-001	3.07779E-006	0.00000E+000	-1.76015E-001	0.00000E+000	9	...........	1488.78
	28	0.29	-1.72114E-001	3.12403E-006	0.00000E+000	-1.72014E-001	0.00000E+000	9	...........	1488.78
	32	0.33	-1.68112E-001	3.13564E-006	0.00000E+000	-1.68013E-001	0.00000E+000	9	...........	1488.78
	36	0.37	-1.64114E-001	3.15455E-006	0.00000E+000	-1.64012E-001	0.00000E+000	9	...........	1488.78
	40	0.41	-1.60122E-001	3.15611E-006	0.00000E+000	-1.60023E-001	0.00000E+000	9	...........	1488.78
	44	0.45	-1.56122E-001	3.16849E-006	0.00000E+000	-1.56022E-001	0.00000E+000	9	...........	1488.78
	48	0.49	-1.52118E-001	3.17507E-006	0.00000E+000	-1.52021E-001	0.00000E+000	9	...........	1488.78
	52	0.53	-1.48117E-001	3.18562E-006	0.00000E+000	-1.48020E-001	0.00000E+000	9	...........	1488.78
	56	0.57	-1.44129E-001	3.15784E-006	0.00000E+000	-1.44031E-001	0.00000E+000	9	...........	1488.78
	60	0.61	-1.40131E-001	3.19683E-006	0.00000E+000	-1.40030E-001	0.00000E+000	9	...........	1488.78
	64	0.65	-1.36126E-001	3.19248E-006	0.00000E+000	-1.36029E-001	0.00000E+000	9	...........	1488.78
	68	0.69	-1.32125E-001	3.18076E-006	0.00000E+000	-1.32028E-001	0.00000E+000	9	...........	1488.78
	72	0.73	-1.28125E-001	3.18757E-006	0.00000E+000	-1.28027E-001	0.00000E+000	9	...........	1488.78
	76	0.77	-1.24137E-001	3.17998E-006	0.00000E+000	-1.24039E-001	0.00000E+000	9	...........	1488.78
	80	0.81	-1.20133E-001	3.18500E-006	0.00000E+000	-1.20038E-001	0.00000E+000	9	...........	1488.78
	84	0.85	-1.16132E-001	3.19733E-006	0.00000E+000	-1.16036E-001	0.00000E+000	9	...........	1488.78
	88	0.89	-1.12129E-001	3.19092E-006	0.00000E+000	-1.12035E-001	0.00000E+000	9	...........	1488.78
	92	0.93	-1.08141E-001	3.19566E-006	0.00000E+000	-1.08047E-001	0.00000E+000	9	...........	1488.78
	96	0.97	-1.04140E-001	3.19594E-006	0.00000E+000	-1.04046E-001	0.00000E+000	9	...........	1488.78
	100	1.01	-1.00135E-001	3.19142E-006	0.00000E+000	-1.00045E-001	0.00000E+000	9	...........	1488.78
	104	1.05	-9.61358E-002	3.19806E-006	0.00000E+000	-9.60436E-002	0.00000E+000	9	...........	1488.78
	108	1.09	-9.21345E-002	3.19739E-006	0.00000E+000	-9.20426E-002	0.00000E+000	9	...........	1488.72
	112	1.13	-8.81467E-002	3.20999E-006	0.00000E+000	-8.80540E-002	0.00000E+000	9	...........	1488.69
	116	1.17	-8.41437E-002	3.21853E-006	0.00000E+000	-8.40529E-002	0.00000E+000	9	...........	1488.69
	120	1.21	-8.01438E-002	3.21959E-006	0.00000E+000	-8.00518E-002	0.00000E+000	9	...........	1488.69
	124	1.25	-7.61412E-002	3.22863E-006	0.00000E+000	-7.60508E-002	0.00000E+000	9	...........	1488.69
	128	1.29	-7.21517E-002	3.22573E-006	0.00000E+000	-7.20622E-002	0.00000E+000	9	...........	1488.69
	132	1.33	-6.81485E-002	3.23097E-006	0.00000E+000	-6.80611E-002	0.00000E+000	9	...........	1488.69
	136	1.37	-6.41460E-002	3.24882E-006	0.00000E+000	-6.40601E-002	0.00000E+000	9	...........	1488.69
	140	1.41	-6.01443E-002	3.25814E-006	0.00000E+000	-6.00590E-002	0.00000E+000	9	...........	1488.69
	144	1.45	-5.61541E-002	3.26410E-006	0.00000E+000	-5.60704E-002	0.00000E+000	9	...........	1488.69
	148	1.49	-5.21551E-002	3.27476E-006	0.00000E+000	-5.20694E-002	0.00000E+000	9	...........	1488.69
	152	1.53	-4.81513E-002	3.29663E-006	0.00000E+000	-4.80683E-002	0.00000E+000	9	...........	1488.69
	156	1.57	-4.41498E-002	3.32106E-006	0.00000E+000	-4.40672E-002	0.00000E+000	9	...........	1488.69
	160	1.61	-4.01482E-002	3.32876E-006	0.00000E+000	-4.00662E-002	0.00000E+000	9	...........	1488.69
	164	1.65	-3.61538E-002	3.35375E-006	0.00000E+000	-3.60776E-002	0.00000E+000	9	...........	1488.69
	168	1.69	-3.21537E-002	3.36831E-006	0.00000E+000	-3.20765E-002	0.00000E+000	9	...........	1488.69
	172	1.73	-2.81535E-002	3.38130E-006	0.00000E+000	-2.80754E-002	0.00000E+000	9	...........	1488.69
	176	1.77	-2.41494E-002	3.39798E-006	0.00000E+000	-2.40744E-002	0.00000E+000	9	...........	1488.69
	180	1.81	-2.01600E-002	3.42186E-006	0.00000E+000	-2.00858E-002	0.00000E+000	9	...........	1488.69
	184	1.85	-1.61564E-002	3.45120E-006	0.00000E+000	-1.60847E-002	0.00000E+000	9	...........	1488.69
	188	1.89	-1.21533E-002	3.47998E-006	0.00000E+000	-1.20837E-002	0.00000E+000	9	...........	1488.69
	192	1.93	-8.15217E-003	3.50274E-006	0.00000E+000	-8.08261E-003	0.00000E+000	9	...........	1488.69
	196	1.97	-4.15880E-003	3.53571E-006	0.00000E+000	-4.09404E-003	0.00000E+000	9	...........	1488.69
	200	2.01	-1.57944E-004	3.56834E-006	0.00000E+000	-9.29683E-005	0.00000E+000	9	...........	1488.69
	204	2.05	-4.11311E-003	-1.09740E-006	0.00000E+000	-4.09404E-003	0.00000E+000	9	...........	1488.69
	208	2.09	-8.10658E-003	-1.30045E-006	0.00000E+000	-8.08261E-003	0.00000E+000	9	...........	1488.69
	212	2.13	-1.21088E-002	-1.41648E-006	0.00000E+000	-1.20837E-002	0.00000E+000	9	...........	1488.69
	216	2.17	-1.61104E-002	-1.50646E-006	0.00000E+000	-1.60847E-002	0.00000E+000	9	...........	1488.69
	220	2.21	-2.01131E-002	-1.57474E-006	0.00000E+000	-2.00858E-002	0.00000E+000	9	...........	1488.69
	224	2.25	-2.41024E-002	-1.63136E-006	0.00000E+000	-2.40744E-002	0.00000E+000	9	...........	1488.69
	228	2.29	-2.81067E-002	-1.67029E-006	0.00000E+000	-2.80754E-002	0.00000E+000	9	...........	1488.69
	232	2.33	-3.21093E-002	-1.72317E-006	0.00000E+000	-3.20765E-002	0.00000E+000	9	...........	1488.69
	236	2.37	-3.61123E-002	-1.73980E-006	0.00000E+000	-3.60776E-002	0.00000E+000	9	...........	1488.69
	240	2.41	-4.01041E-002	-1.76992E-006	0.00000E+000	-4.00662E-002	0.00000E+000	9	...........	1488.69
	244	2.45	-4.41059E-002	-1.82565E-006	0.00000E+000	-4.40672E-002	0.00000E+000	9	...........	1488.69
	248	2.49	-4.81077E-002	-1.85120E-006	0.00000E+000	-4.80683E-002	0.00000E+000	9	...........	1488.69
	252	2.53	-5.21118E-002	-1.89521E-006	0.00000E+000	-5.20694E-002	0.00000E+000	9	...........	1488.69
	256	2.57	-5.61113E-002	-1.92182E-006	0.00000E+000	-5.60704E-002	0.00000E+000	9	...........	1488.69
	260	2.61	-6.01030E-002	-1.94659E-006	0.00000E+000	-6.00590E-002	0.00000E+000	9	...........	1488.69
	264	2.65	-6.41036E-002	-1.98446E-006	0.00000E+000	-6.40601E-002	0.00000E+000	9	...........	1488.69
	268	2.69	-6.81062E-002	-2.00951E-006	0.00000E+000	-6.80611E-002	0.00000E+000	9	...........	1488.69
	272	2.73	-7.21086E-002	-2.03885E-006	0.00000E+000	-7.20622E-002	0.00000E+000	9	...........	1488.69
	276	2.77	-7.60972E-002	-2.06992E-006	0.00000E+000	-7.60508E-002	0.00000E+000	9	...........	1488.69
	280	2.81	-8.01018E-002	-2.09330E-006	0.00000E+000	-8.00518E-002	0.00000E+000	9	...........	1488.69
	284	2.85	-8.41005E-002	-2.10440E-006	0.00000E+000	-8.40529E-002	0.00000E+000	9	...........	1488.69
	288	2.89	-8.80996E-002	-2.14612E-006	0.00000E+000	-8.80540E-002	0.00000E+000	9	...........	1488.69
	292	2.93	-9.20896E-002	-2.14462E-006	0.00000E+000	-9.20426E-002	0.00000E+000	9	...........	1488.69
	296	2.97	-9.60933E-002	-2.20771E-006	0.00000E+000	-9.60436E-002	0.00000E+000	9	...........	1488.69
	300	3.01	-1.00092E-001	-2.21897E-006	0.00000E+000	-1.00045E-001	0.00000E+000	9	...........	1488.69
	304	3.05	-1.04096E-001	-2.26009E-006	0.00000E+000	-1.04046E-001	0.00000E+000	9	...........	1488.69
	308	3.09	-1.08096E-001	-2.29662E-006	0.00000E+000	-1.08047E-001	0.00000E+000	9	...........	1488.89
	312	3.13	-1.12085E-001	-2.31883E-006	0.00000E+000	-1.12035E-001	0.00000E+000	9	...........	1488.97
	316	3.17	-1.16089E-001	-2.36139E-006	0.00000E+000	-1.16036E-001	0.00000E+000	9	...........	1488.97
	320	3.21	-1.20087E-001	-2.38978E-006	0.00000E+000	-1.20038E-001	0.00000E+000	9	...........	1488.97
	324	3.25	-1.24091E-001	-2.42175E-006	0.00000E+000	-1.24039E-001	0.00000E+000	9	...........	1488.97
	328	3.29	-1.28078E-001	-2.45404E-006	0.00000E+000	-1.28027E-001	0.00000E+000	9	...........	1488.97
	332	3.33	-1.32078E-001	-2.49069E-006	0.00000E+000	-1.32028E-001	0.00000E+000	9	...........	1488.97
	336	3.37	-1.36084E-001	-2.53928E-006	0.00000E+000	-1.36029E-001	0.00000E+000	9	...........	1488.97
	340	3.41	-1.40087E-001	-2.57604E-006	0.00000E+000	-1.40030E-001	0.00000E+000	9	...........	1488.97
	344	3.45	-1.44088E-001	-2.61375E-006	0.00000E+000	-1.44031E-001	0.00000E+000	9	...........	1488.97
	348	3.49	-1.48076E-001	-2.65531E-006	0.00000E+000	-1.48020E-001	0.00000E+000	9	...........	1488.97
	352	3.53	-1.52073E-001	-2.69893E-006	0.00000E+000	-1.52021E-001	0.00000E+000	9	...........	1488.97
	356	3.57	-1.56079E-001	-2.73976E-006	0.00000E+000	-1.56022E-001	0.00000E+000	9	...........	1488.97
	360	3.61	-1.60078E-001	-2.79432E-006	0.00000E+000	-1.60023E-001	0.00000E+000	9	...........	1488.97
	364	3.65	-1.64069E-001	-2.82969E-006	0.00000E+000	-1.64012E-001	0.00000E+000	9	...........	1488.97
	368	3.69	-1.68069E-001	-2.90131E-006	0.00000E+000	-1.68013E-001	0.00000E+000	9	...........	1488.97
	372	3.73	-1.72071E-001	-2.95397E-006	0.00000E+000	-1.72014E-001	0.00000E+000	9	...........	1488.97
	376	3.77	-1.76075E-001	-3.01913E-006	0.00000E+000	-1.76015E-001	0.00000E+000	9	...........	1488.97
	380	3.81	-1.80064E-001	-3.08127E-006	0.00000E+000	-1.80004E-001	0.00000E+000	9	...........	1488.97
	384	3.85	-1.84064E-001	-3.15284E-006	0.00000E+000	-1.84005E-001	0.00000E+000	9	...........	1488.97
	388	3.89	-1.88068E-001	-3.24231E-006	0.00000E+000	-1.88006E-001	0.00000E+000	9	...........	1488.97
	392	3.93	-1.92065E-001	-3.33106E-006	0.00000E+000	-1.92007E-001	0.00000E+000	9	...........	1488.97
	396	3.97	-1.96069E-001	-3.42567E-006	0.00000E+000	-1.96008E-001	0.00000E+000	9	...........	1488.97
	400	4.01	-2.00062E-001	-3.52809E-006	0.00000E+000	-1.99996E-001	0.00000E+000	9	...........	1488.97
CURVE2	TABLE
	Pt	T	Vf	Im	Vu	Sig	Ach	IERange	Over	Temp
	#	s	V vs. Ref.	A	V	V	V	#	bits	deg C
	401	4.02	-1.99105E-001	1.89759E-006	0.00000E+000	-1.98996E-001	0.00000E+000	9	...........	1488.97
	405	4.06	-1.95115E-001	2.52682E-006	0.00000E+000	-1.95008E-001	0.00000E+000	9	...........	1488.97
	409	4.1	-1.91111E-001	2.74906E-006	0.00000E+000	-1.91006E-001	0.00000E+000	9	...........	1488.69
	413	4.14	-1.87110E-001	2.87111E-006	0.00000E+000	-1.87005E-001	0.00000E+000	9	...........	1488.69
	417	4.18	-1.83108E-001	2.93454E-006	0.00000E+000	-1.83004E-001	0.00000E+000	9	...........	1488.69
	421	4.22	-1.79105E-001	3.00728E-006	0.00000E+000	-1.79003E-001	0.00000E+000	9	...........	1488.69
	425	4.26	-1.75117E-001	3.04153E-006	0.00000E+000	-1.75015E-001	0.00000E+000	9	...........	1488.69
	429	4.3	-1.71113E-001	3.07567E-006	0.00000E+000	-1.71014E-001	0.00000E+000	9	...........	1488.69
	433	4.34	-1.67112E-001	3.10217E-006	0.00000E+000	-1.67013E-001	0.00000E+000	9	...........	1488.69
	437	4.38	-1.63113E-001	3.11053E-006	0.00000E+000	-1.63012E-001	0.00000E+000	9	...........	1488.69
	441	4.42	-1.59119E-001	3.12989E-006	0.00000E+000	-1.59023E-001	0.00000E+000	9	...........	1488.69
	445	4.46	-1.55120E-001	3.13937E-006	0.00000E+000	-1.55022E-001	0.00000E+000	9	...........	1488.69
	449	4.5	-1.51121E-001	3.12063E-006	0.00000E+000	-1.51021E-001	0.00000E+000	9	...........	1488.69
	453	4.54	-1.47118E-001	3.15070E-006	0.00000E+000	-1.47020E-001	0.00000E+000	9	...........	1488.69
	457	4.58	-1.43129E-001	3.15087E-006	0.00000E+000	-1.43031E-001	0.00000E+000	9	...........	1488.69
	461	4.62	-1.39128E-001	3.15293E-006	0.00000E+000	-1.39030E-001	0.00000E+000	9	...........	1488.69
	465	4.66	-1.35128E-001	3.15806E-006	0.00000E+000	-1.35029E-001	0.00000E+000	9	...........	1488.69
	469	4.7	-1.31125E-001	3.16749E-006	0.00000E+000	-1.31028E-001	0.00000E+000	9	...........	1488.69
	473	4.74	-1.27123E-001	3.16671E-006	0.00000E+000	-1.27027E-001	0.00000E+000	9	...........	1488.69
	477	4.78	-1.23133E-001	3.18272E-006	0.00000E+000	-1.23038E-001	0.00000E+000	9	...........	1488.69
	481	4.82	-1.19134E-001	3.17335E-006	0.00000E+000	-1.19037E-001	0.00000E+000	9	...........	1488.69
	485	4.86	-1.15130E-001	3.18500E-006	0.00000E+000	-1.15036E-001	0.00000E+000	9	...........	1488.69
	489	4.9	-1.11129E-001	3.17864E-006	0.00000E+000	-1.11035E-001	0.00000E+000	9	...........	1488.69
	493	4.94	-1.07138E-001	3.18668E-006	0.00000E+000	-1.07047E-001	0.00000E+000	9	...........	1488.69
	497	4.98	-1.03139E-001	3.19716E-006	0.00000E+000	-1.03045E-001	0.00000E+000	9	...........	1488.69
	501	5.02	-9.91370E-002	3.18885E-006	0.00000E+000	-9.90444E-002	0.00000E+000	9	...........	1488.69
	505	5.06	-9.51353E-002	3.17987E-006	0.00000E+000	-9.50433E-002	0.00000E+000	9	...........	1488.69
	509	5.1	-9.11432E-002	3.16141E-006	0.00000E+000	-9.10548E-002	0.00000E+000	9	...........	1488.69
	513	5.14	-8.71420E-002	3.19789E-006	0.00000E+000	-8.70537E-002	0.00000E+000	9	...........	1488.69
	517	5.18	-8.31395E-002	3.20157E-006	0.00000E+000	-8.30526E-002	0.00000E+000	9	...........	1488.69
	521	5.22	-7.91437E-002	3.20436E-006	0.00000E+000	-7.90516E-002	0.00000E+000	9	...........	1488.69
	525	5.26	-7.51416E-002	3.21819E-006	0.00000E+000	-7.50505E-002	0.00000E+000	9	...........	1488.69
	529	5.3	-7.11531E-002	3.21273E-006	0.00000E+000	-7.10619E-002	0.00000E+000	9	...........	1488.69
	533	5.34	-6.71523E-002	3.22383E-006	0.00000E+000	-6.70609E-002	0.00000E+000	9	...........	1488.69
	537	5.38	-6.31497E-002	3.24503E-006	0.00000E+000	-6.30598E-002	0.00000E+000	9	...........	1488.69
	541	5.42	-5.91462E-002	3.25077E-006	0.00000E+000	-5.90587E-002	0.00000E+000	9	...........	1488.69
	545	5.46	-5.51560E-002	3.25914E-006	0.00000E+000	-5.50702E-002	0.00000E+000	9	...........	1488.69
	549	5.5	-5.11513E-002	3.28368E-006	0.00000E+000	-5.10691E-002	0.00000E+000	9	...........	1488.69
	553	5.54	-4.71533E-002	3.29289E-006	0.00000E+000	-4.70680E-002	0.00000E+000	9	...........	1488.69
	557	5.58	-4.31476E-002	3.31152E-006	0.00000E+000	-4.30670E-002	0.00000E+000	9	...........	1488.69
	561	5.62	-3.91568E-002	3.30650E-006	0.00000E+000	-3.90784E-002	0.00000E+000	9	...........	1488.69
	565	5.66	-3.51560E-002	3.33618E-006	0.00000E+000	-3.50773E-002	0.00000E+000	9	...........	1488.69
	569	5.7	-3.11511E-002	3.36563E-006	0.00000E+000	-3.10763E-002	0.00000E+000	9	...........	1488.69
	573	5.74	-2.71522E-002	3.38080E-006	0.00000E+000	-2.70752E-002	0.00000E+000	9	...........	1488.69
	577	5.78	-2.31452E-002	3.39291E-006	0.00000E+000	-2.30741E-002	0.00000E+000	9	...........	1488.69
	581	5.82	-1.91552E-002	3.42292E-006	0.00000E+000	-1.90855E-002	0.00000E+000	9	...........	1488.69
	585	5.86	-1.51538E-002	3.44428E-006	0.00000E+000	-1.50845E-002	0.00000E+000	9	...........	1488.69
	589	5.9	-1.11510E-002	3.46989E-006	0.00000E+000	-1.10834E-002	0.00000E+000	9	...........	1488.69
	593	5.94	-7.14984E-003	3.49203E-006	0.00000E+000	-7.08234E-003	0.00000E+000	9	...........	1488.69
[...]
	797	7.98	-1.97058E-001	-3.39856E-006	0.00000E+000	-1.96996E-001	0.00000E+000	9	...........	1488.69
	800	8.01	-2.00060E-001	-3.50946E-006	0.00000E+000	-1.99996E-001	0.00000E+000	9	...........	1488.69
CURVE3	TABLE
	Pt	T	Vf	Im	Vu	Sig	Ach	IERange	Over	Temp
	#	s	V vs. Ref.	A	V	V	V	#	bits	deg C
	801	8.02	-1.99104E-001	1.89960E-006	0.00000E+000	-1.98996E-001	0.00000E+000	9	...........	1488.69
	806	8.07	-1.94112E-001	2.59872E-006	0.00000E+000	-1.94007E-001	0.00000E+000	9	...........	1488.69
	811	8.12	-1.89110E-001	2.80981E-006	0.00000E+000	-1.89006E-001	0.00000E+000	9	...........	1488.69
	816	8.17	-1.84107E-001	2.91864E-006	0.00000E+000	-1.84005E-001	0.00000E+000	9	...........	1488.69
	821	8.22	-1.79108E-001	3.01777E-006	0.00000E+000	-1.79003E-001	0.00000E+000	9	...........	1488.69
	826	8.27	-1.74116E-001	3.06223E-006	0.00000E+000	-1.74014E-001	0.00000E+000	9	...........	1488.69
	831	8.32	-1.69113E-001	3.09597E-006	0.00000E+000	-1.69013E-001	0.00000E+000	9	...........	1488.69
	836	8.37	-1.64111E-001	3.11349E-006	0.00000E+000	-1.64012E-001	0.00000E+000	9	...........	1488.69
	841	8.42	-1.59119E-001	3.13703E-006	0.00000E+000	-1.59023E-001	0.00000E+000	9	...........	1488.69
	846	8.47	-1.54119E-001	3.14004E-006	0.00000E+000	-1.54022E-001	0.00000E+000	9	...........	1488.69
	851	8.52	-1.49118E-001	3.15907E-006	0.00000E+000	-1.49020E-001	0.00000E+000	9	...........	1488.69
	856	8.57	-1.44126E-001	3.12336E-006	0.00000E+000	-1.44031E-001	0.00000E+000	9	...........	1488.69
	861	8.62	-1.39125E-001	3.16548E-006	0.00000E+000	-1.39030E-001	0.00000E+000	9	...........	1488.69
	866	8.67	-1.34124E-001	3.16364E-006	0.00000E+000	-1.34029E-001	0.00000E+000	9	...........	1488.69
	871	8.72	-1.29124E-001	3.16978E-006	0.00000E+000	-1.29027E-001	0.00000E+000	9	...........	1488.69
	876	8.77	-1.24135E-001	3.16637E-006	0.00000E+000	-1.24039E-001	0.00000E+000	9	...........	1488.69
	881	8.82	-1.19130E-001	3.16877E-006	0.00000E+000	-1.19037E-001	0.00000E+000	9	...........	1488.69
	886	8.87	-1.14128E-001	3.16777E-006	0.00000E+000	-1.14036E-001	0.00000E+000	9	...........	1488.69
	891	8.92	-1.09136E-001	3.15354E-006	0.00000E+000	-1.09047E-001	0.00000E+000	9	...........	1488.69
	896	8.97	-1.04137E-001	3.16872E-006	0.00000E+000	-1.04046E-001	0.00000E+000	9	...........	1488.69
	901	9.02	-9.91372E-002	3.17039E-006	0.00000E+000	-9.90444E-002	0.00000E+000	9	...........	1488.69
	906	9.07	-9.41318E-002	3.17892E-006	0.00000E+000	-9.40431E-002	0.00000E+000	9	...........	1488.69
	911	9.12	-8.91425E-002	3.17675E-006	0.00000E+000	-8.90542E-002	0.00000E+000	9	...........	1488.69
	916	9.17	-8.41421E-002	3.18707E-006	0.00000E+000	-8.40529E-002	0.00000E+000	9	...........	1488.69
	921	9.22	-7.91432E-002	3.20637E-006	0.00000E+000	-7.90516E-002	0.00000E+000	9	...........	1488.69
	926	9.27	-7.41531E-002	3.18556E-006	0.00000E+000	-7.40627E-002	0.00000E+000	9	...........	1488.69
	931	9.32	-6.91466E-002	3.22840E-006	0.00000E+000	-6.90614E-002	0.00000E+000	9	...........	1488.69
	936	9.37	-6.41447E-002	3.24380E-006	0.00000E+000	-6.40601E-002	0.00000E+000	9	...........	1488.69
	941	9.42	-5.91420E-002	3.26494E-006	0.00000E+000	-5.90587E-002	0.00000E+000	9	...........	1488.69
	946	9.47	-5.41550E-002	3.25791E-006	0.00000E+000	-5.40699E-002	0.00000E+000	9	...........	1488.69
	951	9.52	-4.91481E-002	3.28023E-006	0.00000E+000	-4.90686E-002	0.00000E+000	9	...........	1488.69
	956	9.57	-4.41493E-002	3.28212E-006	0.00000E+000	-4.40672E-002	0.00000E+000	9	...........	1488.69
	961	9.62	-3.91565E-002	3.26109E-006	0.00000E+000	-3.90784E-002	0.00000E+000	9	...........	1488.69
	966	9.67	-3.41540E-002	3.29484E-006	0.00000E+000	-3.40771E-002	0.00000E+000	9	...........	1488.69
	971	9.72	-2.91503E-002	3.31079E-006	0.00000E+000	-2.90757E-002	0.00000E+000	9	...........	1488.69
	976	9.77	-2.41463E-002	3.33958E-006	0.00000E+000	-2.40744E-002	0.00000E+000	9	...........	1488.69
	981	9.82	-1.91557E-002	3.36167E-006	0.00000E+000	-1.90855E-002	0.00000E+000	9	...........	1488.69
	986	9.87	-1.41502E-002	3.41650E-006	0.00000E+000	-1.40842E-002	0.00000E+000	9	...........	1488.69
	991	9.92	-9.14706E-003	3.47184E-006	0.00000E+000	-9.08288E-003	0.00000E+000	9	...........	1488.69
	996	9.97	-4.15560E-003	3.53114E-006	0.00000E+000	-4.09404E-003	0.00000E+000	9	...........	1488.69
	1001	10.02	-1.11406E-003	-7.46136E-007	0.00000E+000	-1.09324E-003	0.00000E+000	9	...........	1488.69
	1006	10.07	-6.10457E-003	-1.19932E-006	0.00000E+000	-6.08207E-003	0.00000E+000	9	...........	1488.69
	1011	10.12	-1.11096E-002	-1.41096E-006	0.00000E+000	-1.10834E-002	0.00000E+000	9	...........	1488.69
	1016	10.17	-1.61121E-002	-1.49820E-006	0.00000E+000	-1.60847E-002	0.00000E+000	9	...........	1488.69
	1021	10.22	-2.11181E-002	-1.59632E-006	0.00000E+000	-2.10861E-002	0.00000E+000	9	...........	1488.69
	1026	10.27	-2.61080E-002	-1.65021E-006	0.00000E+000	-2.60749E-002	0.00000E+000	9	...........	1488.69
	1031	10.32	-3.11072E-002	-1.71754E-006	0.00000E+000	-3.10763E-002	0.00000E+000	9	...........	1488.69
	1036	10.37	-3.61114E-002	-1.73779E-006	0.00000E+000	-3.60776E-002	0.00000E+000	9	...........	1488.69
	1041	10.42	-4.11026E-002	-1.81014E-006	0.00000E+000	-4.10664E-002	0.00000E+000	9	...........	1488.69
	1046	10.47	-4.61071E-002	-1.84885E-006	0.00000E+000	-4.60678E-002	0.00000E+000	9	...........	1488.69
	1051	10.52	-5.11105E-002	-1.90001E-006	0.00000E+000	-5.10691E-002	0.00000E+000	9	...........	1488.69
	1056	10.57	-5.61114E-002	-1.90419E-006	0.00000E+000	-5.60704E-002	0.00000E+000	9	...........	1488.69
	1061	10.62	-6.11041E-002	-1.96840E-006	0.00000E+000	-6.10593E-002	0.00000E+000	9	...........	1488.69
	1066	10.67	-6.61067E-002	-1.98552E-006	0.00000E+000	-6.60606E-002	0.00000E+000	9	...........	1488.69
	1071	10.72	-7.11087E-002	-2.04348E-006	0.00000E+000	-7.10619E-002	0.00000E+000	9	...........	1488.69
	1076	10.77	-7.60979E-002	-2.05363E-006	0.00000E+000	-7.60508E-002	0.00000E+000	9	...........	1488.69
	1081	10.82	-8.11015E-002	-2.10322E-006	0.00000E+000	-8.10521E-002	0.00000E+000	9	...........	1488.69
	1086	10.87	-8.61026E-002	-2.13011E-006	0.00000E+000	-8.60534E-002	0.00000E+000	9	...........	1488.69
	1091	10.92	-9.11023E-002	-2.19789E-006	0.00000E+000	-9.10548E-002	0.00000E+000	9	...........	1488.69
	1096	10.97	-9.60919E-002	-2.20380E-006	0.00000E+000	-9.60436E-002	0.00000E+000	9	...........	1488.69
	1101	11.02	-1.01093E-001	-2.25663E-006	0.00000E+000	-1.01045E-001	0.00000E+000	9	...........	1488.69
	1106	11.07	-1.06097E-001	-2.26360E-006	0.00000E+000	-1.06046E-001	0.00000E+000	9	...........	1488.69
	1111	11.12	-1.11084E-001	-2.31620E-006	0.00000E+000	-1.11035E-001	0.00000E+000	9	...........	1488.69
	1116	11.17	-1.16087E-001	-2.34421E-006	0.00000E+000	-1.16036E-001	0.00000E+000	9	...........	1488.69
	1121	11.22	-1.21087E-001	-2.39714E-006	0.00000E+000	-1.21038E-001	0.00000E+000	9	...........	1488.69
	1126	11.27	-1.26089E-001	-2.41929E-006	0.00000E+000	-1.26039E-001	0.00000E+000	9	...........	1488.69
	1131	11.32	-1.31079E-001	-2.49393E-006	0.00000E+000	-1.31028E-001	0.00000E+000	9	...........	1488.69
	1136	11.37	-1.36080E-001	-2.50319E-006	0.00000E+000	-1.36029E-001	0.00000E+000	9	...........	1488.69
	1141	11.42	-1.41082E-001	-2.57744E-006	0.00000E+000	-1.41031E-001	0.00000E+000	9	...........	1488.69
	1146	11.47	-1.46073E-001	-2.61130E-006	0.00000E+000	-1.46019E-001	0.00000E+000	9	...........	1488.69
	1151	11.52	-1.51076E-001	-2.68621E-006	0.00000E+000	-1.51021E-001	0.00000E+000	9	...........	1488.69
	1156	11.57	-1.56079E-001	-2.73698E-006	0.00000E+000	-1.56022E-001	0.00000E+000	9	...........	1488.69
	1161	11.62	-1.61080E-001	-2.82840E-006	0.00000E+000	-1.61023E-001	0.00000E+000	9	...........	1488.69
	1166	11.67	-1.66067E-001	-2.85484E-006	0.00000E+000	-1.66012E-001	0.00000E+000	9	...........	1488.69
	1171	11.72	-1.71069E-001	-2.93651E-006	0.00000E+000	-1.71014E-001	0.00000E+000	9	...........	1488.69
	1176	11.77	-1.76074E-001	-3.00987E-006	0.00000E+000	-1.76015E-001	0.00000E+000	9	...........	1488.69
	1181	11.82	-1.81065E-001	-3.11094E-006	0.00000E+000	-1.81004E-001	0.00000E+000	9	...........	1488.69
	1186	11.87	-1.86065E-001	-3.18859E-006	0.00000E+000	-1.86005E-001	0.00000E+000	9	...........	1488.69
	1191	11.92	-1.91066E-001	-3.31316E-006	0.00000E+000	-1.91006E-001	0.00000E+000	9	...........	1488.69
	1196	11.97	-1.96069E-001	-3.39784E-006	0.00000E+000	-1.96008E-001	0.00000E+000	9	...........	1488.69
	1200	12.01	-2.00058E-001	-3.48848E-006	0.00000E+000	-1.99996E-001	0.00000E+000	9	...........	1488.69
CURVE4	TABLE
	Pt	T	Vf	Im	Vu	Sig	Ach	IERange	Over	Temp
	#	s	V vs. Ref.	A	V	V	V	#	bits	deg C
	1201	12.02	-2.00080E-001	-8.37229E-007	0.00000E+000	-1.99996E-001	0.00000E+000	9	...........	1488.69