File: input/CV_ECSA_#2_#4.DTA
EXPLAIN
TAG	CV
TITLE	LABEL	ECSA	Test Identifier
DATE	LABEL	17.7.2024	Date
TIME	LABEL	13:20:15	Time
NOTES	NOTES	1	Notes...

PSTAT	PSTAT	IFC1010-34090	Potentiostat
VINIT	POTEN	1.00000E-001	F	A Potential (V)
VLIMIT1	POTEN	2.00000E-001	F	A Potential (V)
VLIMIT2	POTEN	1.00000E-001	F	A Potential (V)
VFINAL	POTEN	1.00000E-001	F	A Potential (V)
SCANRATE	QUANT	3.99999E+001	A Real Number
STEPSIZE	QUANT	1.00000E+000	Step Size (mV)
CYCLES	IQUANT	3	Cycles (#)
IMODE	SELECTOR	1	I/E Range Mode
IRANGE	QUANT	3.00000E-001	Max Current (mA)
AREA	QUANT	1.00000E+000	Sample Area (cm^2)
EQDELAY	QUANT	0.00000E+000	Equil. Time (s)
IRCOMP	SELECTOR	0	IRComp
PFCOR	QUANT	5.00000E+001	PF Corr. (ohm)
SAMPLINGMODE	SELECTOR	2	Sampling Mode
EOC	QUANT	0.7205974	Open Circuit (V)
ELECTRODETYPE	SELECTOR	0	Electrode Type
STRIPPING	TOGGLE	F	Used for Stripping
SEQUENCER	TOGGLE	TRUE	Run as Sequence
PSTATMODEL	IQUANT	64	Pstat Model
PSTATSECTION	LABEL	IFC1010-34090	Pstat Section
PSTATSERIALNO	LABEL	34090	Pstat Serial Number
CTRLMODE	IQUANT	1	Control Mode
ELECTROMETER	IQUANT	0	RE=0 or CS=1
IESTAB	IQUANT	2	I/E Stability
CASPEED	IQUANT	4	Control Amp Speed
CONVENTION	IQUANT	1	Current Convention
ICHRANGE	IQUANT	2	Ich Range
ICHRANGEMODE	TOGGLE	F	Ich Auto Range
ICHOFFSETENABLE	TOGGLE	F	Ich Offset Enable
ICHOFFSET	QUANT	0	Ich Offset (V)
ICHFILTER	IQUANT	3	Ich Filter
VCHRANGE	IQUANT	1	Vch Range
VCHRANGEMODE	TOGGLE	F	Vch Auto Range
VCHOFFSETENABLE	TOGGLE	F	Vch Offset Enable
VCHOFFSET	QUANT	0	Vch Offset (V)
VCHFILTER	IQUANT	3	Vch Filter
IERANGELOWERLIMIT	IQUANT	4	I/E Range Lower Limit
IERANGEMODE	TOGGLE	F	I/E AutoRange
IERANGE	IQUANT	9	I/E Range
ACHSELECT	IQUANT	0	Ach Select
ACHRANGE	IQUANT	2	Ach Range
ACHOFFSETENABLE	TOGGLE	F	Ach Offset Enable
ACHOFFSET	QUANT	0	Ach Offset (V)
ACHFILTER	IQUANT	1	Ach Filter
SENSECABLEID	IQUANT	13	Sense Cable ID
PWRCABLEID	IQUANT	13	Power Cable ID
DCCALDATE	LABEL	1/30/2024	DC Calibration Date
ACCALDATE	LABEL	1/8/2024	AC Calibration Date
FRAMEWORKVERSION	LABEL	7.10.3	Framework Version
INSTRUMENTVERSION	LABEL	4.91	Instrument Version
COMMVERSION	LABEL	3.10	Communications Version
CPUPLDVERSION	LABEL	2.22	CPU PLD Version
CTRLPLDVERSION	LABEL	0.00	CTRL PLD Version
PSTATPLDVERSION	LABEL	0.00	PSTAT PLD Version
CURVE1	TABLE
	Pt	T	Vf	Im	Vu	Sig	Ach	IERange	Over	Temp
	#	s	V vs. Ref.	A	V	V	V	#	bits	deg C
	0	0.025	1.00295E-001	-2.06559E-005	0.00000E+000	9.99950E-002	0.00000E+000	9	...........	1467.43
	2	0.075	1.02287E-001	-1.85152E-005	0.00000E+000	1.01995E-001	0.00000E+000	9	...........	1467.43
	4	0.125	1.04286E-001	-1.82302E-005	0.00000E+000	1.03995E-001	0.00000E+000	9	...........	1467.43
	6	0.175	1.06288E-001	-1.80690E-005	0.00000E+000	1.05994E-001	0.00000E+000	9	...........	1467.43
	8	0.225	1.08290E-001	-1.78645E-005	0.00000E+000	1.07994E-001	0.00000E+000	9	...........	1467.43
	10	0.275	1.10291E-001	-1.77402E-005	0.00000E+000	1.09994E-001	0.00000E+000	9	...........	1467.43
	12	0.325	1.12288E-001	-1.75582E-005	0.00000E+000	1.11994E-001	0.00000E+000	9	...........	1467.43
	14	0.375	1.14303E-001	-1.74412E-005	0.00000E+000	1.14006E-001	0.00000E+000	9	...........	1467.43
	16	0.425	1.16304E-001	-1.72700E-005	0.00000E+000	1.16006E-001	0.00000E+000	9	...........	1467.43
	18	0.475	1.18304E-001	-1.71719E-005	0.00000E+000	1.18006E-001	0.00000E+000	9	...........	1467.43
	20	0.525	1.20307E-001	-1.70072E-005	0.00000E+000	1.20005E-001	0.00000E+000	9	...........	1467.43
	22	0.575	1.22309E-001	-1.69161E-005	0.00000E+000	1.22005E-001	0.00000E+000	9	...........	1467.43
	24	0.625	1.24309E-001	-1.67552E-005	0.00000E+000	1.24005E-001	0.00000E+000	9	...........	1467.43
	26	0.675	1.26309E-001	-1.66644E-005	0.00000E+000	1.26005E-001	0.00000E+000	9	...........	1467.43
	28	0.725	1.28310E-001	-1.65107E-005	0.00000E+000	1.28005E-001	0.00000E+000	9	...........	1467.43
	30	0.775	1.30308E-001	-1.64301E-005	0.00000E+000	1.30004E-001	0.00000E+000	9	...........	1467.43
	32	0.825	1.32309E-001	-1.62767E-005	0.00000E+000	1.32004E-001	0.00000E+000	9	...........	1467.43
	34	0.875	1.34310E-001	-1.62043E-005	0.00000E+000	1.34004E-001	0.00000E+000	9	...........	1467.43
	36	0.925	1.36310E-001	-1.60576E-005	0.00000E+000	1.36004E-001	0.00000E+000	9	...........	1467.47
	38	0.975	1.38312E-001	-1.59807E-005	0.00000E+000	1.38004E-001	0.00000E+000	9	...........	1467.61
	40	1.025	1.40312E-001	-1.58402E-005	0.00000E+000	1.40003E-001	0.00000E+000	9	...........	1467.61
	42	1.075	1.42312E-001	-1.57671E-005	0.00000E+000	1.42003E-001	0.00000E+000	9	...........	1467.61
	44	1.125	1.44310E-001	-1.56266E-005	0.00000E+000	1.44003E-001	0.00000E+000	9	...........	1467.61
	46	1.175	1.46313E-001	-1.55579E-005	0.00000E+000	1.46003E-001	0.00000E+000	9	...........	1467.61
	48	1.225	1.48313E-001	-1.54205E-005	0.00000E+000	1.48003E-001	0.00000E+000	9	...........	1467.61
	50	1.275	1.50311E-001	-1.53590E-005	0.00000E+000	1.50002E-001	0.00000E+000	9	...........	1467.61
	52	1.325	1.52312E-001	-1.52133E-005	0.00000E+000	1.52002E-001	0.00000E+000	9	...........	1467.61
	54	1.375	1.54315E-001	-1.51529E-005	0.00000E+000	1.54002E-001	0.00000E+000	9	...........	1467.61
	56	1.425	1.56314E-001	-1.50150E-005	0.00000E+000	1.56002E-001	0.00000E+000	9	...........	1467.61
	58	1.475	1.58314E-001	-1.49503E-005	0.00000E+000	1.58002E-001	0.00000E+000	9	...........	1467.61
	60	1.525	1.60317E-001	-1.48181E-005	0.00000E+000	1.60001E-001	0.00000E+000	9	...........	1467.61
	62	1.575	1.62315E-001	-1.47623E-005	0.00000E+000	1.62001E-001	0.00000E+000	9	...........	1467.61
	64	1.625	1.64316E-001	-1.46230E-005	0.00000E+000	1.64001E-001	0.00000E+000	9	...........	1467.61
	66	1.675	1.66318E-001	-1.45723E-005	0.00000E+000	1.66001E-001	0.00000E+000	9	...........	1467.61
	68	1.725	1.68317E-001	-1.44309E-005	0.00000E+000	1.68001E-001	0.00000E+000	9	...........	1467.61
	70	1.775	1.70321E-001	-1.43747E-005	0.00000E+000	1.70000E-001	0.00000E+000	9	...........	1467.61
	72	1.825	1.72322E-001	-1.42392E-005	0.00000E+000	1.72000E-001	0.00000E+000	9	...........	1467.61
	74	1.875	1.74323E-001	-1.41964E-005	0.00000E+000	1.74000E-001	0.00000E+000	9	...........	1467.61
	76	1.925	1.76322E-001	-1.40541E-005	0.00000E+000	1.76000E-001	0.00000E+000	9	...........	1467.61
	78	1.975	1.78325E-001	-1.39995E-005	0.00000E+000	1.78000E-001	0.00000E+000	9	...........	1467.61
	80	2.025	1.80324E-001	-1.38608E-005	0.00000E+000	1.79999E-001	0.00000E+000	9	...........	1467.61
	82	2.075	1.82324E-001	-1.38112E-005	0.00000E+000	1.81999E-001	0.00000E+000	9	...........	1467.61
	84	2.125	1.84325E-001	-1.36715E-005	0.00000E+000	1.83999E-001	0.00000E+000	9	...........	1467.61
	86	2.175	1.86326E-001	-1.36117E-005	0.00000E+000	1.85999E-001	0.00000E+000	9	...........	1467.61
	88	2.225	1.88326E-001	-1.34748E-005	0.00000E+000	1.87999E-001	0.00000E+000	9	...........	1467.61
	90	2.275	1.90326E-001	-1.34178E-005	0.00000E+000	1.89998E-001	0.00000E+000	9	...........	1467.61
	92	2.325	1.92329E-001	-1.32730E-005	0.00000E+000	1.91998E-001	0.00000E+000	9	...........	1467.61
	94	2.375	1.94326E-001	-1.32161E-005	0.00000E+000	1.93998E-001	0.00000E+000	9	...........	1467.61
	96	2.425	1.96327E-001	-1.30615E-005	0.00000E+000	1.95998E-001	0.00000E+000	9	...........	1467.61
	98	2.475	1.98328E-001	-1.30008E-005	0.00000E+000	1.97998E-001	0.00000E+000	9	...........	1467.61
	100	2.525	2.00331E-001	-1.28575E-005	0.00000E+000	1.99997E-001	0.00000E+000	9	...........	1467.61
	102	2.575	1.98347E-001	-1.66817E-005	0.00000E+000	1.97998E-001	0.00000E+000	9	...........	1467.61
	104	2.625	1.96346E-001	-1.70219E-005	0.00000E+000	1.95998E-001	0.00000E+000	9	...........	1467.61
	106	2.675	1.94345E-001	-1.73498E-005	0.00000E+000	1.93998E-001	0.00000E+000	9	...........	1467.61
	108	2.725	1.92348E-001	-1.75402E-005	0.00000E+000	1.91998E-001	0.00000E+000	9	...........	1467.61
	110	2.775	1.90345E-001	-1.77914E-005	0.00000E+000	1.89998E-001	0.00000E+000	9	...........	1467.61
	112	2.825	1.88344E-001	-1.79143E-005	0.00000E+000	1.87999E-001	0.00000E+000	9	...........	1467.61
	114	2.875	1.86344E-001	-1.81225E-005	0.00000E+000	1.85999E-001	0.00000E+000	9	...........	1467.61
	116	2.925	1.84343E-001	-1.82287E-005	0.00000E+000	1.83999E-001	0.00000E+000	9	...........	1467.61
	118	2.975	1.82343E-001	-1.84179E-005	0.00000E+000	1.81999E-001	0.00000E+000	9	...........	1467.61
	120	3.025	1.80342E-001	-1.84905E-005	0.00000E+000	1.79999E-001	0.00000E+000	9	...........	1467.61
	122	3.075	1.78341E-001	-1.86643E-005	0.00000E+000	1.78000E-001	0.00000E+000	9	...........	1467.61
	124	3.125	1.76338E-001	-1.87358E-005	0.00000E+000	1.76000E-001	0.00000E+000	9	...........	1467.61
	126	3.175	1.74341E-001	-1.88947E-005	0.00000E+000	1.74000E-001	0.00000E+000	9	...........	1467.61
	128	3.225	1.72339E-001	-1.89550E-005	0.00000E+000	1.72000E-001	0.00000E+000	9	...........	1467.61
	130	3.275	1.70340E-001	-1.91094E-005	0.00000E+000	1.70000E-001	0.00000E+000	9	...........	1467.61
	132	3.325	1.68335E-001	-1.91631E-005	0.00000E+000	1.68001E-001	0.00000E+000	9	...........	1467.61
	134	3.375	1.66335E-001	-1.93161E-005	0.00000E+000	1.66001E-001	0.00000E+000	9	...........	1467.61
	136	3.425	1.64333E-001	-1.93607E-005	0.00000E+000	1.64001E-001	0.00000E+000	9	...........	1467.61
	138	3.475	1.62333E-001	-1.95079E-005	0.00000E+000	1.62001E-001	0.00000E+000	9	...........	1467.61
	140	3.525	1.60334E-001	-1.95521E-005	0.00000E+000	1.60001E-001	0.00000E+000	9	...........	1467.61
	142	3.575	1.58330E-001	-1.96989E-005	0.00000E+000	1.58002E-001	0.00000E+000	9	...........	1467.61
	144	3.625	1.56330E-001	-1.97493E-005	0.00000E+000	1.56002E-001	0.00000E+000	9	...........	1467.61
	146	3.675	1.54333E-001	-1.98822E-005	0.00000E+000	1.54002E-001	0.00000E+000	9	...........	1467.61
	148	3.725	1.52330E-001	-1.99318E-005	0.00000E+000	1.52002E-001	0.00000E+000	9	...........	1467.61
	150	3.775	1.50330E-001	-2.00717E-005	0.00000E+000	1.50002E-001	0.00000E+000	9	...........	1467.61
	152	3.825	1.48333E-001	-2.01124E-005	0.00000E+000	1.48003E-001	0.00000E+000	9	...........	1467.61
	154	3.875	1.46334E-001	-2.02530E-005	0.00000E+000	1.46003E-001	0.00000E+000	9	...........	1467.61
	156	3.925	1.44331E-001	-2.02979E-005	0.00000E+000	1.44003E-001	0.00000E+000	9	...........	1467.56
	158	3.975	1.42332E-001	-2.04377E-005	0.00000E+000	1.42003E-001	0.00000E+000	9	...........	1467.43
	160	4.025	1.40331E-001	-2.04884E-005	0.00000E+000	1.40003E-001	0.00000E+000	9	...........	1467.43
	162	4.075	1.38332E-001	-2.06197E-005	0.00000E+000	1.38004E-001	0.00000E+000	9	...........	1467.43
	164	4.125	1.36329E-001	-2.06652E-005	0.00000E+000	1.36004E-001	0.00000E+000	9	...........	1467.43
	166	4.175	1.34329E-001	-2.08044E-005	0.00000E+000	1.34004E-001	0.00000E+000	9	...........	1467.43
	168	4.225	1.32328E-001	-2.08459E-005	0.00000E+000	1.32004E-001	0.00000E+000	9	...........	1467.43
	170	4.275	1.30326E-001	-2.09913E-005	0.00000E+000	1.30004E-001	0.00000E+000	9	...........	1467.43
	172	4.325	1.28329E-001	-2.10413E-005	0.00000E+000	1.28005E-001	0.00000E+000	9	...........	1467.43
	174	4.375	1.26327E-001	-2.11788E-005	0.00000E+000	1.26005E-001	0.00000E+000	9	...........	1467.43
	176	4.425	1.24327E-001	-2.12274E-005	0.00000E+000	1.24005E-001	0.00000E+000	9	...........	1467.43
	178	4.475	1.22326E-001	-2.13664E-005	0.00000E+000	1.22005E-001	0.00000E+000	9	...........	1467.43
	180	4.525	1.20324E-001	-2.14183E-005	0.00000E+000	1.20005E-001	0.00000E+000	9	...........	1467.43
	182	4.575	1.18321E-001	-2.15620E-005	0.00000E+000	1.18006E-001	0.00000E+000	9	...........	1467.43
	184	4.625	1.16320E-001	-2.16086E-005	0.00000E+000	1.16006E-001	0.00000E+000	9	...........	1467.43
	186	4.675	1.14321E-001	-2.17633E-005	0.00000E+000	1.14006E-001	0.00000E+000	9	...........	1467.43
	188	4.725	1.12306E-001	-2.18409E-005	0.00000E+000	1.11994E-001	0.00000E+000	9	...........	1467.43
	190	4.775	1.10308E-001	-2.19588E-005	0.00000E+000	1.09994E-001	0.00000E+000	9	...........	1467.43
	192	4.825	1.08306E-001	-2.20196E-005	0.00000E+000	1.07994E-001	0.00000E+000	9	...........	1467.43
	194	4.875	1.06304E-001	-2.21709E-005	0.00000E+000	1.05994E-001	0.00000E+000	9	...........	1467.43
	196	4.925	1.04304E-001	-2.22355E-005	0.00000E+000	1.03995E-001	0.00000E+000	9	...........	1467.43
	198	4.975	1.02303E-001	-2.23884E-005	0.00000E+000	1.01995E-001	0.00000E+000	9	...........	1467.43
	200	5.025	1.00304E-001	-2.24492E-005	0.00000E+000	9.99950E-002	0.00000E+000	9	...........	1467.43
CURVE2	TABLE
	Pt	T	Vf	Im	Vu	Sig	Ach	IERange	Over	Temp
	#	s	V vs. Ref.	A	V	V	V	#	bits	deg C
	201	5.05	1.01287E-001	-1.89682E-005	0.00000E+000	1.00995E-001	0.00000E+000	9	...........	1467.43
	203	5.1	1.03287E-001	-1.85567E-005	0.00000E+000	1.02995E-001	0.00000E+000	9	...........	1467.43
	205	5.15	1.05286E-001	-1.83546E-005	0.00000E+000	1.04994E-001	0.00000E+000	9	...........	1467.43
	207	5.2	1.07287E-001	-1.81235E-005	0.00000E+000	1.06994E-001	0.00000E+000	9	...........	1467.43
	209	5.25	1.09290E-001	-1.79705E-005	0.00000E+000	1.08994E-001	0.00000E+000	9	...........	1467.43
	211	5.3	1.11287E-001	-1.77834E-005	0.00000E+000	1.10994E-001	0.00000E+000	9	...........	1467.43
	213	5.35	1.13302E-001	-1.76295E-005	0.00000E+000	1.13006E-001	0.00000E+000	9	...........	1467.43
	215	5.4	1.15303E-001	-1.74743E-005	0.00000E+000	1.15006E-001	0.00000E+000	9	...........	1467.43
	217	5.45	1.17302E-001	-1.73548E-005	0.00000E+000	1.17006E-001	0.00000E+000	9	...........	1467.43
	219	5.5	1.19305E-001	-1.71956E-005	0.00000E+000	1.19006E-001	0.00000E+000	9	...........	1467.43
	221	5.55	1.21306E-001	-1.70885E-005	0.00000E+000	1.21005E-001	0.00000E+000	9	...........	1467.43
	223	5.6	1.23307E-001	-1.69275E-005	0.00000E+000	1.23005E-001	0.00000E+000	9	...........	1467.43
	225	5.65	1.25307E-001	-1.68251E-005	0.00000E+000	1.25005E-001	0.00000E+000	9	...........	1467.43
	227	5.7	1.27309E-001	-1.66779E-005	0.00000E+000	1.27005E-001	0.00000E+000	9	...........	1467.43
	229	5.75	1.29312E-001	-1.65793E-005	0.00000E+000	1.29005E-001	0.00000E+000	9	...........	1467.43
	231	5.8	1.31311E-001	-1.64352E-005	0.00000E+000	1.31004E-001	0.00000E+000	9	...........	1467.43
	233	5.85	1.33312E-001	-1.63501E-005	0.00000E+000	1.33004E-001	0.00000E+000	9	...........	1467.43
	235	5.9	1.35313E-001	-1.62068E-005	0.00000E+000	1.35004E-001	0.00000E+000	9	...........	1467.43
	237	5.95	1.37314E-001	-1.61153E-005	0.00000E+000	1.37004E-001	0.00000E+000	9	...........	1467.43
	239	6	1.39313E-001	-1.59830E-005	0.00000E+000	1.39004E-001	0.00000E+000	9	...........	1467.43
	241	6.05	1.41316E-001	-1.58910E-005	0.00000E+000	1.41003E-001	0.00000E+000	9	...........	1467.43
	243	6.1	1.43313E-001	-1.57527E-005	0.00000E+000	1.43003E-001	0.00000E+000	9	...........	1467.43
	245	6.15	1.45316E-001	-1.56755E-005	0.00000E+000	1.45003E-001	0.00000E+000	9	...........	1467.43
	247	6.2	1.47316E-001	-1.55486E-005	0.00000E+000	1.47003E-001	0.00000E+000	9	...........	1467.43
	249	6.25	1.49315E-001	-1.54712E-005	0.00000E+000	1.49003E-001	0.00000E+000	9	...........	1467.43
	251	6.3	1.51313E-001	-1.53352E-005	0.00000E+000	1.51002E-001	0.00000E+000	9	...........	1467.43
	253	6.35	1.53313E-001	-1.52686E-005	0.00000E+000	1.53002E-001	0.00000E+000	9	...........	1467.43
	255	6.4	1.55314E-001	-1.51336E-005	0.00000E+000	1.55002E-001	0.00000E+000	9	...........	1467.43
	257	6.45	1.57315E-001	-1.50605E-005	0.00000E+000	1.57002E-001	0.00000E+000	9	...........	1467.43
	259	6.5	1.59317E-001	-1.49312E-005	0.00000E+000	1.59001E-001	0.00000E+000	9	...........	1467.43
	261	6.55	1.61317E-001	-1.48641E-005	0.00000E+000	1.61001E-001	0.00000E+000	9	...........	1467.43
	263	6.6	1.63316E-001	-1.47367E-005	0.00000E+000	1.63001E-001	0.00000E+000	9	...........	1467.43
	265	6.65	1.65319E-001	-1.46709E-005	0.00000E+000	1.65001E-001	0.00000E+000	9	...........	1467.43
	267	6.7	1.67318E-001	-1.45360E-005	0.00000E+000	1.67001E-001	0.00000E+000	9	...........	1467.43
	269	6.75	1.69318E-001	-1.44726E-005	0.00000E+000	1.69000E-001	0.00000E+000	9	...........	1467.43
	271	6.8	1.71320E-001	-1.43356E-005	0.00000E+000	1.71000E-001	0.00000E+000	9	...........	1467.43
	273	6.85	1.73321E-001	-1.42735E-005	0.00000E+000	1.73000E-001	0.00000E+000	9	...........	1467.43
	275	6.9	1.75321E-001	-1.41477E-005	0.00000E+000	1.75000E-001	0.00000E+000	9	...........	1467.43
	277	6.95	1.77323E-001	-1.40849E-005	0.00000E+000	1.77000E-001	0.00000E+000	9	...........	1467.70
	279	7	1.79326E-001	-1.39537E-005	0.00000E+000	1.78999E-001	0.00000E+000	9	...........	1467.70
	281	7.05	1.81325E-001	-1.38905E-005	0.00000E+000	1.80999E-001	0.00000E+000	9	...........	1467.70
	283	7.1	1.83328E-001	-1.37533E-005	0.00000E+000	1.82999E-001	0.00000E+000	9	...........	1467.70
	285	7.15	1.85324E-001	-1.36911E-005	0.00000E+000	1.84999E-001	0.00000E+000	9	...........	1467.70
	287	7.2	1.87327E-001	-1.35581E-005	0.00000E+000	1.86999E-001	0.00000E+000	9	...........	1467.70
	289	7.25	1.89323E-001	-1.34946E-005	0.00000E+000	1.88998E-001	0.00000E+000	9	...........	1467.70
	291	7.3	1.91327E-001	-1.33537E-005	0.00000E+000	1.90998E-001	0.00000E+000	9	...........	1467.70
	293	7.35	1.93327E-001	-1.32906E-005	0.00000E+000	1.92998E-001	0.00000E+000	9	...........	1467.70
	295	7.4	1.95328E-001	-1.31476E-005	0.00000E+000	1.94998E-001	0.00000E+000	9	...........	1467.70
	297	7.45	1.97332E-001	-1.30783E-005	0.00000E+000	1.96998E-001	0.00000E+000	9	...........	1467.70
	299	7.5	1.99333E-001	-1.29354E-005	0.00000E+000	1.98997E-001	0.00000E+000	9	...........	1467.70
	301	7.55	1.99351E-001	-1.63747E-005	0.00000E+000	1.98997E-001	0.00000E+000	9	...........	1467.70
[...]
	431	10.8	1.31309E-001	-1.63868E-005	0.00000E+000	1.31004E-001	0.00000E+000	9	...........	1467.43
	433	10.85	1.33311E-001	-1.63158E-005	0.00000E+000	1.33004E-001	0.00000E+000	9	...........	1467.43
	435	10.9	1.35311E-001	-1.61586E-005	0.00000E+000	1.35004E-001	0.00000E+000	9	...........	1467.43
	437	10.95	1.37310E-001	-1.60902E-005	0.00000E+000	1.37004E-001	0.00000E+000	9	...........	1467.79
	439	11	1.39312E-001	-1.59340E-005	0.00000E+000	1.39004E-001	0.00000E+000	9	...........	1467.79
	441	11.05	1.41315E-001	-1.58663E-005	0.00000E+000	1.41003E-001	0.00000E+000	9	...........	1467.79
	443	11.1	1.43312E-001	-1.57181E-005	0.00000E+000	1.43003E-001	0.00000E+000	9	...........	1467.79
	445	11.15	1.45314E-001	-1.56447E-005	0.00000E+000	1.45003E-001	0.00000E+000	9	...........	1467.79
	447	11.2	1.47316E-001	-1.54944E-005	0.00000E+000	1.47003E-001	0.00000E+000	9	...........	1467.79
	449	11.25	1.49316E-001	-1.54336E-005	0.00000E+000	1.49003E-001	0.00000E+000	9	...........	1467.79
	451	11.3	1.51314E-001	-1.52832E-005	0.00000E+000	1.51002E-001	0.00000E+000	9	...........	1467.79
	453	11.35	1.53314E-001	-1.52342E-005	0.00000E+000	1.53002E-001	0.00000E+000	9	...........	1467.79
	455	11.4	1.55314E-001	-1.50843E-005	0.00000E+000	1.55002E-001	0.00000E+000	9	...........	1467.79
	457	11.45	1.57314E-001	-1.50241E-005	0.00000E+000	1.57002E-001	0.00000E+000	9	...........	1467.79
	459	11.5	1.59316E-001	-1.48849E-005	0.00000E+000	1.59001E-001	0.00000E+000	9	...........	1467.79
	461	11.55	1.61316E-001	-1.48287E-005	0.00000E+000	1.61001E-001	0.00000E+000	9	...........	1467.79
	463	11.6	1.63314E-001	-1.46840E-005	0.00000E+000	1.63001E-001	0.00000E+000	9	...........	1467.79
	465	11.65	1.65317E-001	-1.46356E-005	0.00000E+000	1.65001E-001	0.00000E+000	9	...........	1467.79
	467	11.7	1.67316E-001	-1.44915E-005	0.00000E+000	1.67001E-001	0.00000E+000	9	...........	1467.79
	469	11.75	1.69316E-001	-1.44368E-005	0.00000E+000	1.69000E-001	0.00000E+000	9	...........	1467.79
	471	11.8	1.71319E-001	-1.42919E-005	0.00000E+000	1.71000E-001	0.00000E+000	9	...........	1467.79
	473	11.85	1.73321E-001	-1.42412E-005	0.00000E+000	1.73000E-001	0.00000E+000	9	...........	1467.79
	475	11.9	1.75320E-001	-1.41056E-005	0.00000E+000	1.75000E-001	0.00000E+000	9	...........	1467.79
	477	11.95	1.77324E-001	-1.40482E-005	0.00000E+000	1.77000E-001	0.00000E+000	9	...........	1467.43
	479	12	1.79327E-001	-1.39106E-005	0.00000E+000	1.78999E-001	0.00000E+000	9	...........	1467.43
	481	12.05	1.81325E-001	-1.38536E-005	0.00000E+000	1.80999E-001	0.00000E+000	9	...........	1467.43
	483	12.1	1.83328E-001	-1.37121E-005	0.00000E+000	1.82999E-001	0.00000E+000	9	...........	1467.43
	485	12.15	1.85325E-001	-1.36550E-005	0.00000E+000	1.84999E-001	0.00000E+000	9	...........	1467.43
	487	12.2	1.87329E-001	-1.35223E-005	0.00000E+000	1.86999E-001	0.00000E+000	9	...........	1467.43
	489	12.25	1.89323E-001	-1.34533E-005	0.00000E+000	1.88998E-001	0.00000E+000	9	...........	1467.43
	491	12.3	1.91328E-001	-1.33185E-005	0.00000E+000	1.90998E-001	0.00000E+000	9	...........	1467.43
	493	12.35	1.93330E-001	-1.32479E-005	0.00000E+000	1.92998E-001	0.00000E+000	9	...........	1467.43
	495	12.4	1.95327E-001	-1.31114E-005	0.00000E+000	1.94998E-001	0.00000E+000	9	...........	1467.43
	497	12.45	1.97331E-001	-1.30419E-005	0.00000E+000	1.96998E-001	0.00000E+000	9	...........	1467.43
	499	12.5	1.99332E-001	-1.28935E-005	0.00000E+000	1.98997E-001	0.00000E+000	9	...........	1467.43
	501	12.55	1.99351E-001	-1.63271E-005	0.00000E+000	1.98997E-001	0.00000E+000	9	...........	1467.43
	503	12.6	1.97350E-001	-1.68117E-005	0.00000E+000	1.96998E-001	0.00000E+000	9	...........	1467.43
	505	12.65	1.95346E-001	-1.71655E-005	0.00000E+000	1.94998E-001	0.00000E+000	9	...........	1467.43
	507	12.7	1.93347E-001	-1.73713E-005	0.00000E+000	1.92998E-001	0.00000E+000	9	...........	1467.43
	509	12.75	1.91346E-001	-1.76166E-005	0.00000E+000	1.90998E-001	0.00000E+000	9	...........	1467.43
	511	12.8	1.89342E-001	-1.77673E-005	0.00000E+000	1.88998E-001	0.00000E+000	9	...........	1467.43
	513	12.85	1.87344E-001	-1.79587E-005	0.00000E+000	1.86999E-001	0.00000E+000	9	...........	1467.43
	515	12.9	1.85341E-001	-1.80747E-005	0.00000E+000	1.84999E-001	0.00000E+000	9	...........	1467.43
	517	12.95	1.83344E-001	-1.82518E-005	0.00000E+000	1.82999E-001	0.00000E+000	9	...........	1467.88
	519	13	1.81343E-001	-1.83512E-005	0.00000E+000	1.80999E-001	0.00000E+000	9	...........	1467.88
	521	13.05	1.79345E-001	-1.85142E-005	0.00000E+000	1.78999E-001	0.00000E+000	9	...........	1467.88
	523	13.1	1.77341E-001	-1.85971E-005	0.00000E+000	1.77000E-001	0.00000E+000	9	...........	1467.88
	525	13.15	1.75337E-001	-1.87472E-005	0.00000E+000	1.75000E-001	0.00000E+000	9	...........	1467.88
	527	13.2	1.73339E-001	-1.88203E-005	0.00000E+000	1.73000E-001	0.00000E+000	9	...........	1467.88
	529	13.25	1.71337E-001	-1.89589E-005	0.00000E+000	1.71000E-001	0.00000E+000	9	...........	1467.88
	531	13.3	1.69336E-001	-1.90298E-005	0.00000E+000	1.69000E-001	0.00000E+000	9	...........	1467.88
	533	13.35	1.67336E-001	-1.91605E-005	0.00000E+000	1.67001E-001	0.00000E+000	9	...........	1467.88
	535	13.4	1.65337E-001	-1.92300E-005	0.00000E+000	1.65001E-001	0.00000E+000	9	...........	1467.88
	537	13.45	1.63335E-001	-1.93597E-005	0.00000E+000	1.63001E-001	0.00000E+000	9	...........	1467.88
	539	13.5	1.61335E-001	-1.94125E-005	0.00000E+000	1.61001E-001	0.00000E+000	9	...........	1467.88
	541	13.55	1.59335E-001	-1.95470E-005	0.00000E+000	1.59001E-001	0.00000E+000	9	...........	1467.88
	543	13.6	1.57331E-001	-1.96075E-005	0.00000E+000	1.57002E-001	0.00000E+000	9	...........	1467.88
	545	13.65	1.55333E-001	-1.97284E-005	0.00000E+000	1.55002E-001	0.00000E+000	9	...........	1467.88
	547	13.7	1.53331E-001	-1.97962E-005	0.00000E+000	1.53002E-001	0.00000E+000	9	...........	1467.88
	549	13.75	1.51333E-001	-1.99183E-005	0.00000E+000	1.51002E-001	0.00000E+000	9	...........	1467.88
	551	13.8	1.49334E-001	-1.99664E-005	0.00000E+000	1.49003E-001	0.00000E+000	9	...........	1467.88
	553	13.85	1.47334E-001	-2.00981E-005	0.00000E+000	1.47003E-001	0.00000E+000	9	...........	1467.88
	555	13.9	1.45333E-001	-2.01614E-005	0.00000E+000	1.45003E-001	0.00000E+000	9	...........	1467.88
	557	13.95	1.43332E-001	-2.02822E-005	0.00000E+000	1.43003E-001	0.00000E+000	9	...........	1467.43
	559	14	1.41334E-001	-2.03446E-005	0.00000E+000	1.41003E-001	0.00000E+000	9	...........	1467.43
	561	14.05	1.39331E-001	-2.04660E-005	0.00000E+000	1.39004E-001	0.00000E+000	9	...........	1467.43
	563	14.1	1.37329E-001	-2.05312E-005	0.00000E+000	1.37004E-001	0.00000E+000	9	...........	1467.43
	565	14.15	1.35329E-001	-2.06471E-005	0.00000E+000	1.35004E-001	0.00000E+000	9	...........	1467.43
	567	14.2	1.33329E-001	-2.07158E-005	0.00000E+000	1.33004E-001	0.00000E+000	9	...........	1467.43
	569	14.25	1.31327E-001	-2.08404E-005	0.00000E+000	1.31004E-001	0.00000E+000	9	...........	1467.43
	571	14.3	1.29329E-001	-2.08949E-005	0.00000E+000	1.29005E-001	0.00000E+000	9	...........	1467.43
	573	14.35	1.27327E-001	-2.10224E-005	0.00000E+000	1.27005E-001	0.00000E+000	9	...........	1467.43
	575	14.4	1.25325E-001	-2.10910E-005	0.00000E+000	1.25005E-001	0.00000E+000	9	...........	1467.43
	577	14.45	1.23326E-001	-2.12143E-005	0.00000E+000	1.23005E-001	0.00000E+000	9	...........	1467.43
	579	14.5	1.21325E-001	-2.12900E-005	0.00000E+000	1.21005E-001	0.00000E+000	9	...........	1467.43
	581	14.55	1.19324E-001	-2.14140E-005	0.00000E+000	1.19006E-001	0.00000E+000	9	...........	1467.43
	583	14.6	1.17320E-001	-2.14887E-005	0.00000E+000	1.17006E-001	0.00000E+000	9	...........	1467.43
	585	14.65	1.15323E-001	-2.16043E-005	0.00000E+000	1.15006E-001	0.00000E+000	9	...........	1467.43
	587	14.7	1.13319E-001	-2.16824E-005	0.00000E+000	1.13006E-001	0.00000E+000	9	...........	1467.43
	589	14.75	1.11303E-001	-2.18020E-005	0.00000E+000	1.10994E-001	0.00000E+000	9	...........	1467.43
	591	14.8	1.09306E-001	-2.18898E-005	0.00000E+000	1.08994E-001	0.00000E+000	9	...........	1467.43
	593	14.85	1.07305E-001	-2.20128E-005	0.00000E+000	1.06994E-001	0.00000E+000	9	...........	1467.43
	595	14.9	1.05304E-001	-2.21018E-005	0.00000E+000	1.04994E-001	0.00000E+000	9	...........	1467.43
	597	14.95	1.03305E-001	-2.22211E-005	0.00000E+000	1.02995E-001	0.00000E+000	9	...........	1467.88
	599	15	1.01305E-001	-2.23131E-005	0.00000E+000	1.00995E-001	0.00000E+000	9	...........	1467.88
	600	15.025	1.00303E-001	-2.24053E-005	0.00000E+000	9.99950E-002	0.00000E+000	9	...........	1467.88
CURVE4	TABLE
	Pt	T	Vf	Im	Vu	Sig	Ach	IERange	Over	Temp
	#	s	V vs. Ref.	A	V	V	V	#	bits	deg C
	601	15.05	1.00294E-001	-2.06620E-005	0.00000E+000	9.99950E-002	0.00000E+000	9	...........	1467.88