File: input/CV_ECSA_#2_#6.DTA
EXPLAIN
TAG	CV
TITLE	LABEL	ECSA	Test Identifier
DATE	LABEL	17.7.2024	Date
TIME	LABEL	13:20:42	Time
NOTES	NOTES	1	Notes...

PSTAT	PSTAT	IFC1010-34090	Potentiostat
VINIT	POTEN	1.00000E-001	F	A Potential (V)
VLIMIT1	POTEN	2.00000E-001	F	A Potential (V)
VLIMIT2	POTEN	1.00000E-001	F	A Potential (V)
VFINAL	POTEN	1.00000E-001	F	A Potential (V)
SCANRATE	QUANT	5.99999E+001	A Real Number
STEPSIZE	QUANT	1.00000E+000	Step Size (mV)
CYCLES	IQUANT	3	Cycles (#)
IMODE	SELECTOR	1	I/E Range Mode
IRANGE	QUANT	3.00000E-001	Max Current (mA)
AREA	QUANT	1.00000E+000	Sample Area (cm^2)
EQDELAY	QUANT	0.00000E+000	Equil. Time (s)
IRCOMP	SELECTOR	0	IRComp
PFCOR	QUANT	5.00000E+001	PF Corr. (ohm)
SAMPLINGMODE	SELECTOR	2	Sampling Mode
EOC	QUANT	0.7205974	Open Circuit (V)
ELECTRODETYPE	SELECTOR	0	Electrode Type
STRIPPING	TOGGLE	F	Used for Stripping
SEQUENCER	TOGGLE	TRUE	Run as Sequence
PSTATMODEL	IQUANT	64	Pstat Model
PSTATSECTION	LABEL	IFC1010-34090	Pstat Section
PSTATSERIALNO	LABEL	34090	Pstat Serial Number
CTRLMODE	IQUANT	1	Control Mode
ELECTROMETER	IQUANT	0	RE=0 or CS=1
IESTAB	IQUANT	2	I/E Stability
CASPEED	IQUANT	4	Control Amp Speed
CONVENTION	IQUANT	1	Current Convention
ICHRANGE	IQUANT	2	Ich Range
ICHRANGEMODE	TOGGLE	F	Ich Auto Range
ICHOFFSETENABLE	TOGGLE	F	Ich Offset Enable
ICHOFFSET	QUANT	0	Ich Offset (V)
ICHFILTER	IQUANT	3	Ich Filter
VCHRANGE	IQUANT	1	Vch Range
VCHRANGEMODE	TOGGLE	F	Vch Auto Range
VCHOFFSETENABLE	TOGGLE	F	Vch Offset Enable
VCHOFFSET	QUANT	0	Vch Offset (V)
VCHFILTER	IQUANT	3	Vch Filter
IERANGELOWERLIMIT	IQUANT	4	I/E Range Lower Limit
IERANGEMODE	TOGGLE	F	I/E AutoRange
IERANGE	IQUANT	9	I/E Range
ACHSELECT	IQUANT	0	Ach Select
ACHRANGE	IQUANT	2	Ach Range
ACHOFFSETENABLE	TOGGLE	F	Ach Offset Enable
ACHOFFSET	QUANT	0	Ach Offset (V)
ACHFILTER	IQUANT	1	Ach Filter
SENSECABLEID	IQUANT	13	Sense Cable ID
PWRCABLEID	IQUANT	13	Power Cable ID
DCCALDATE	LABEL	1/30/2024	DC Calibration Date
ACCALDATE	LABEL	1/8/2024	AC Calibration Date
FRAMEWORKVERSION	LABEL	7.10.3	Framework Version
INSTRUMENTVERSION	LABEL	4.91	Instrument Version
COMMVERSION	LABEL	3.10	Communications Version
CPUPLDVERSION	LABEL	2.22	CPU PLD Version
CTRLPLDVERSION	LABEL	0.00	CTRL PLD Version
PSTATPLDVERSION	LABEL	0.00	PSTAT PLD Version
CURVE1	TABLE
	Pt	T	Vf	Im	Vu	Sig	Ach	IERange	Over	Temp
	#	s	V vs. Ref.	A	V	V	V	#	bits	deg C
	0	0.016667	1.00292E-001	-2.07628E-005	0.00000E+000	9.99950E-002	0.00000E+000	9	...........	1467.43
	2	0.05	1.02281E-001	-1.77673E-005	0.00000E+000	1.01995E-001	0.00000E+000	9	...........	1467.43
	4	0.083333	1.04279E-001	-1.75258E-005	0.00000E+000	1.03995E-001	0.00000E+000	9	...........	1467.43
	6	0.116667	1.06281E-001	-1.72785E-005	0.00000E+000	1.05994E-001	0.00000E+000	9	...........	1467.43
	8	0.15	1.08282E-001	-1.70727E-005	0.00000E+000	1.07994E-001	0.00000E+000	9	...........	1467.43
	10	0.183333	1.10284E-001	-1.69589E-005	0.00000E+000	1.09994E-001	0.00000E+000	9	...........	1467.43
	12	0.216667	1.12281E-001	-1.67797E-005	0.00000E+000	1.11994E-001	0.00000E+000	9	...........	1467.43
	14	0.25	1.14296E-001	-1.66018E-005	0.00000E+000	1.14006E-001	0.00000E+000	9	...........	1467.43
	16	0.283333	1.16295E-001	-1.65110E-005	0.00000E+000	1.16006E-001	0.00000E+000	9	...........	1467.43
	18	0.316667	1.18296E-001	-1.63518E-005	0.00000E+000	1.18006E-001	0.00000E+000	9	...........	1467.43
	20	0.35	1.20298E-001	-1.61884E-005	0.00000E+000	1.20005E-001	0.00000E+000	9	...........	1467.43
	22	0.383333	1.22298E-001	-1.61019E-005	0.00000E+000	1.22005E-001	0.00000E+000	9	...........	1467.43
	24	0.416667	1.24301E-001	-1.59539E-005	0.00000E+000	1.24005E-001	0.00000E+000	9	...........	1467.43
	26	0.45	1.26300E-001	-1.57955E-005	0.00000E+000	1.26005E-001	0.00000E+000	9	...........	1467.43
	28	0.483333	1.28302E-001	-1.57163E-005	0.00000E+000	1.28005E-001	0.00000E+000	9	...........	1467.43
	30	0.516667	1.30301E-001	-1.55801E-005	0.00000E+000	1.30004E-001	0.00000E+000	9	...........	1467.43
	32	0.55	1.32304E-001	-1.54230E-005	0.00000E+000	1.32004E-001	0.00000E+000	9	...........	1467.43
	34	0.583333	1.34304E-001	-1.53484E-005	0.00000E+000	1.34004E-001	0.00000E+000	9	...........	1467.43
	36	0.616667	1.36303E-001	-1.52178E-005	0.00000E+000	1.36004E-001	0.00000E+000	9	...........	1467.43
	38	0.65	1.38305E-001	-1.50710E-005	0.00000E+000	1.38004E-001	0.00000E+000	9	...........	1467.43
	40	0.683333	1.40304E-001	-1.50044E-005	0.00000E+000	1.40003E-001	0.00000E+000	9	...........	1467.42
	42	0.716667	1.42305E-001	-1.48632E-005	0.00000E+000	1.42003E-001	0.00000E+000	9	...........	1467.34
	44	0.75	1.44303E-001	-1.47240E-005	0.00000E+000	1.44003E-001	0.00000E+000	9	...........	1467.34
	46	0.783333	1.46308E-001	-1.46597E-005	0.00000E+000	1.46003E-001	0.00000E+000	9	...........	1467.34
	48	0.816667	1.48306E-001	-1.45275E-005	0.00000E+000	1.48003E-001	0.00000E+000	9	...........	1467.34
	50	0.85	1.50306E-001	-1.43917E-005	0.00000E+000	1.50002E-001	0.00000E+000	9	...........	1467.34
	52	0.883333	1.52305E-001	-1.43279E-005	0.00000E+000	1.52002E-001	0.00000E+000	9	...........	1467.34
	54	0.916667	1.54307E-001	-1.41989E-005	0.00000E+000	1.54002E-001	0.00000E+000	9	...........	1467.34
	56	0.95	1.56308E-001	-1.40563E-005	0.00000E+000	1.56002E-001	0.00000E+000	9	...........	1467.34
	58	0.98333	1.58307E-001	-1.39854E-005	0.00000E+000	1.58002E-001	0.00000E+000	9	...........	1467.34
	60	1.01667	1.60310E-001	-1.38667E-005	0.00000E+000	1.60001E-001	0.00000E+000	9	...........	1467.34
	62	1.05	1.62308E-001	-1.37326E-005	0.00000E+000	1.62001E-001	0.00000E+000	9	...........	1467.34
	64	1.08333	1.64310E-001	-1.36631E-005	0.00000E+000	1.64001E-001	0.00000E+000	9	...........	1467.34
	66	1.11667	1.66312E-001	-1.35462E-005	0.00000E+000	1.66001E-001	0.00000E+000	9	...........	1467.34
	68	1.15	1.68310E-001	-1.34118E-005	0.00000E+000	1.68001E-001	0.00000E+000	9	...........	1467.34
	70	1.18333	1.70316E-001	-1.33453E-005	0.00000E+000	1.70000E-001	0.00000E+000	9	...........	1467.34
	72	1.21667	1.72314E-001	-1.32232E-005	0.00000E+000	1.72000E-001	0.00000E+000	9	...........	1467.34
	74	1.25	1.74314E-001	-1.30866E-005	0.00000E+000	1.74000E-001	0.00000E+000	9	...........	1467.34
	76	1.28333	1.76314E-001	-1.30213E-005	0.00000E+000	1.76000E-001	0.00000E+000	9	...........	1467.34
	78	1.31667	1.78317E-001	-1.29044E-005	0.00000E+000	1.78000E-001	0.00000E+000	9	...........	1467.34
	80	1.35	1.80318E-001	-1.27564E-005	0.00000E+000	1.79999E-001	0.00000E+000	9	...........	1467.34
	82	1.38333	1.82318E-001	-1.26985E-005	0.00000E+000	1.81999E-001	0.00000E+000	9	...........	1467.34
	84	1.41667	1.84319E-001	-1.25736E-005	0.00000E+000	1.83999E-001	0.00000E+000	9	...........	1467.34
	86	1.45	1.86319E-001	-1.24169E-005	0.00000E+000	1.85999E-001	0.00000E+000	9	...........	1467.34
	88	1.48333	1.88320E-001	-1.23498E-005	0.00000E+000	1.87999E-001	0.00000E+000	9	...........	1467.34
	90	1.51667	1.90320E-001	-1.22252E-005	0.00000E+000	1.89998E-001	0.00000E+000	9	...........	1467.34
	92	1.55	1.92321E-001	-1.20678E-005	0.00000E+000	1.91998E-001	0.00000E+000	9	...........	1467.34
	94	1.58333	1.94320E-001	-1.19945E-005	0.00000E+000	1.93998E-001	0.00000E+000	9	...........	1467.34
	96	1.61667	1.96321E-001	-1.18626E-005	0.00000E+000	1.95998E-001	0.00000E+000	9	...........	1467.34
	98	1.65	1.98323E-001	-1.16936E-005	0.00000E+000	1.97998E-001	0.00000E+000	9	...........	1467.34
	100	1.68333	2.00324E-001	-1.16144E-005	0.00000E+000	1.99997E-001	0.00000E+000	9	...........	1467.38
	102	1.71667	1.98350E-001	-1.69358E-005	0.00000E+000	1.97998E-001	0.00000E+000	9	...........	1467.52
	104	1.75	1.96349E-001	-1.73647E-005	0.00000E+000	1.95998E-001	0.00000E+000	9	...........	1467.52
	106	1.78333	1.94347E-001	-1.77361E-005	0.00000E+000	1.93998E-001	0.00000E+000	9	...........	1467.52
	108	1.81667	1.92347E-001	-1.79984E-005	0.00000E+000	1.91998E-001	0.00000E+000	9	...........	1467.52
	110	1.85	1.90348E-001	-1.81658E-005	0.00000E+000	1.89998E-001	0.00000E+000	9	...........	1467.52
	112	1.88333	1.88347E-001	-1.84047E-005	0.00000E+000	1.87999E-001	0.00000E+000	9	...........	1467.52
	114	1.91667	1.86346E-001	-1.85724E-005	0.00000E+000	1.85999E-001	0.00000E+000	9	...........	1467.52
	116	1.95	1.84343E-001	-1.86962E-005	0.00000E+000	1.83999E-001	0.00000E+000	9	...........	1467.52
	118	1.98333	1.82344E-001	-1.88828E-005	0.00000E+000	1.81999E-001	0.00000E+000	9	...........	1467.52
	120	2.01667	1.80344E-001	-1.90188E-005	0.00000E+000	1.79999E-001	0.00000E+000	9	...........	1467.52
	122	2.05	1.78342E-001	-1.91140E-005	0.00000E+000	1.78000E-001	0.00000E+000	9	...........	1467.52
	124	2.08333	1.76341E-001	-1.92675E-005	0.00000E+000	1.76000E-001	0.00000E+000	9	...........	1467.52
	126	2.11667	1.74342E-001	-1.93897E-005	0.00000E+000	1.74000E-001	0.00000E+000	9	...........	1467.52
	128	2.15	1.72341E-001	-1.94680E-005	0.00000E+000	1.72000E-001	0.00000E+000	9	...........	1467.52
	130	2.18333	1.70341E-001	-1.96123E-005	0.00000E+000	1.70000E-001	0.00000E+000	9	...........	1467.52
	132	2.21667	1.68337E-001	-1.97246E-005	0.00000E+000	1.68001E-001	0.00000E+000	9	...........	1467.52
	134	2.25	1.66338E-001	-1.97884E-005	0.00000E+000	1.66001E-001	0.00000E+000	9	...........	1467.52
	136	2.28333	1.64335E-001	-1.99266E-005	0.00000E+000	1.64001E-001	0.00000E+000	9	...........	1467.52
	138	2.31667	1.62335E-001	-2.00345E-005	0.00000E+000	1.62001E-001	0.00000E+000	9	...........	1467.52
	140	2.35	1.60339E-001	-2.00912E-005	0.00000E+000	1.60001E-001	0.00000E+000	9	...........	1467.52
	142	2.38333	1.58333E-001	-2.02268E-005	0.00000E+000	1.58002E-001	0.00000E+000	9	...........	1467.52
	144	2.41667	1.56335E-001	-2.03321E-005	0.00000E+000	1.56002E-001	0.00000E+000	9	...........	1467.52
	146	2.45	1.54335E-001	-2.03891E-005	0.00000E+000	1.54002E-001	0.00000E+000	9	...........	1467.52
	148	2.48333	1.52333E-001	-2.05195E-005	0.00000E+000	1.52002E-001	0.00000E+000	9	...........	1467.52
	150	2.51667	1.50332E-001	-2.06315E-005	0.00000E+000	1.50002E-001	0.00000E+000	9	...........	1467.52
	152	2.55	1.48334E-001	-2.06805E-005	0.00000E+000	1.48003E-001	0.00000E+000	9	...........	1467.52
	154	2.58333	1.46335E-001	-2.08148E-005	0.00000E+000	1.46003E-001	0.00000E+000	9	...........	1467.52
	156	2.61667	1.44332E-001	-2.09238E-005	0.00000E+000	1.44003E-001	0.00000E+000	9	...........	1467.52
	158	2.65	1.42334E-001	-2.09816E-005	0.00000E+000	1.42003E-001	0.00000E+000	9	...........	1467.52
	160	2.68333	1.40333E-001	-2.11057E-005	0.00000E+000	1.40003E-001	0.00000E+000	9	...........	1467.49
	162	2.71667	1.38334E-001	-2.12150E-005	0.00000E+000	1.38004E-001	0.00000E+000	9	...........	1467.43
	164	2.75	1.36331E-001	-2.12758E-005	0.00000E+000	1.36004E-001	0.00000E+000	9	...........	1467.43
	166	2.78333	1.34332E-001	-2.14000E-005	0.00000E+000	1.34004E-001	0.00000E+000	9	...........	1467.43
	168	2.81667	1.32330E-001	-2.15170E-005	0.00000E+000	1.32004E-001	0.00000E+000	9	...........	1467.43
	170	2.85	1.30328E-001	-2.15802E-005	0.00000E+000	1.30004E-001	0.00000E+000	9	...........	1467.43
	172	2.88333	1.28330E-001	-2.17114E-005	0.00000E+000	1.28005E-001	0.00000E+000	9	...........	1467.43
	174	2.91667	1.26327E-001	-2.18279E-005	0.00000E+000	1.26005E-001	0.00000E+000	9	...........	1467.43
	176	2.95	1.24328E-001	-2.18937E-005	0.00000E+000	1.24005E-001	0.00000E+000	9	...........	1467.43
	178	2.98333	1.22327E-001	-2.20271E-005	0.00000E+000	1.22005E-001	0.00000E+000	9	...........	1467.43
	180	3.01667	1.20326E-001	-2.21456E-005	0.00000E+000	1.20005E-001	0.00000E+000	9	...........	1467.43
	182	3.05	1.18323E-001	-2.22245E-005	0.00000E+000	1.18006E-001	0.00000E+000	9	...........	1467.43
	184	3.08333	1.16322E-001	-2.23503E-005	0.00000E+000	1.16006E-001	0.00000E+000	9	...........	1467.43
	186	3.11667	1.14323E-001	-2.24806E-005	0.00000E+000	1.14006E-001	0.00000E+000	9	...........	1467.43
	188	3.15	1.12308E-001	-2.25886E-005	0.00000E+000	1.11994E-001	0.00000E+000	9	...........	1467.43
	190	3.18333	1.10310E-001	-2.26909E-005	0.00000E+000	1.09994E-001	0.00000E+000	9	...........	1467.43
	192	3.21667	1.08308E-001	-2.28303E-005	0.00000E+000	1.07994E-001	0.00000E+000	9	...........	1467.43
	194	3.25	1.06308E-001	-2.29068E-005	0.00000E+000	1.05994E-001	0.00000E+000	9	...........	1467.43
	196	3.28333	1.04305E-001	-2.30533E-005	0.00000E+000	1.03995E-001	0.00000E+000	9	...........	1467.43
	198	3.31667	1.02304E-001	-2.31999E-005	0.00000E+000	1.01995E-001	0.00000E+000	9	...........	1467.43
	200	3.35	1.00304E-001	-2.32745E-005	0.00000E+000	9.99950E-002	0.00000E+000	9	...........	1467.43
CURVE2	TABLE
	Pt	T	Vf	Im	Vu	Sig	Ach	IERange	Over	Temp
	#	s	V vs. Ref.	A	V	V	V	#	bits	deg C
	201	3.36667	1.01278E-001	-1.83144E-005	0.00000E+000	1.00995E-001	0.00000E+000	9	...........	1467.43
	203	3.4	1.03278E-001	-1.78215E-005	0.00000E+000	1.02995E-001	0.00000E+000	9	...........	1467.43
	205	3.43333	1.05277E-001	-1.75288E-005	0.00000E+000	1.04994E-001	0.00000E+000	9	...........	1467.43
	207	3.46667	1.07278E-001	-1.72844E-005	0.00000E+000	1.06994E-001	0.00000E+000	9	...........	1467.43
	209	3.5	1.09282E-001	-1.71492E-005	0.00000E+000	1.08994E-001	0.00000E+000	9	...........	1467.43
	211	3.53333	1.11280E-001	-1.69544E-005	0.00000E+000	1.10994E-001	0.00000E+000	9	...........	1467.43
	213	3.56667	1.13297E-001	-1.67360E-005	0.00000E+000	1.13006E-001	0.00000E+000	9	...........	1467.43
	215	3.6	1.15296E-001	-1.66594E-005	0.00000E+000	1.15006E-001	0.00000E+000	9	...........	1467.43
	217	3.63333	1.17298E-001	-1.64947E-005	0.00000E+000	1.17006E-001	0.00000E+000	9	...........	1467.43
	219	3.66667	1.19300E-001	-1.63199E-005	0.00000E+000	1.19006E-001	0.00000E+000	9	...........	1467.43
	221	3.7	1.21301E-001	-1.62330E-005	0.00000E+000	1.21005E-001	0.00000E+000	9	...........	1467.43
	223	3.73333	1.23304E-001	-1.60673E-005	0.00000E+000	1.23005E-001	0.00000E+000	9	...........	1467.43
	225	3.76667	1.25302E-001	-1.59148E-005	0.00000E+000	1.25005E-001	0.00000E+000	9	...........	1467.43
	227	3.8	1.27303E-001	-1.58339E-005	0.00000E+000	1.27005E-001	0.00000E+000	9	...........	1467.43
	229	3.83333	1.29305E-001	-1.56898E-005	0.00000E+000	1.29005E-001	0.00000E+000	9	...........	1467.43
	231	3.86667	1.31304E-001	-1.55362E-005	0.00000E+000	1.31004E-001	0.00000E+000	9	...........	1467.43
	233	3.9	1.33306E-001	-1.54532E-005	0.00000E+000	1.33004E-001	0.00000E+000	9	...........	1467.43
	235	3.93333	1.35306E-001	-1.53179E-005	0.00000E+000	1.35004E-001	0.00000E+000	9	...........	1467.43
	237	3.96667	1.37305E-001	-1.51746E-005	0.00000E+000	1.37004E-001	0.00000E+000	9	...........	1467.43
	239	4	1.39306E-001	-1.50920E-005	0.00000E+000	1.39004E-001	0.00000E+000	9	...........	1467.43
	241	4.03333	1.41309E-001	-1.49609E-005	0.00000E+000	1.41003E-001	0.00000E+000	9	...........	1467.43
	243	4.06667	1.43306E-001	-1.48195E-005	0.00000E+000	1.43003E-001	0.00000E+000	9	...........	1467.43
	245	4.1	1.45308E-001	-1.47380E-005	0.00000E+000	1.45003E-001	0.00000E+000	9	...........	1467.43
	247	4.13333	1.47309E-001	-1.46250E-005	0.00000E+000	1.47003E-001	0.00000E+000	9	...........	1467.43
	249	4.16667	1.49310E-001	-1.44814E-005	0.00000E+000	1.49003E-001	0.00000E+000	9	...........	1467.43
	251	4.2	1.51308E-001	-1.44065E-005	0.00000E+000	1.51002E-001	0.00000E+000	9	...........	1467.43
	253	4.23333	1.53307E-001	-1.42936E-005	0.00000E+000	1.53002E-001	0.00000E+000	9	...........	1467.43
	255	4.26667	1.55309E-001	-1.41416E-005	0.00000E+000	1.55002E-001	0.00000E+000	9	...........	1467.43
	257	4.3	1.57308E-001	-1.40790E-005	0.00000E+000	1.57002E-001	0.00000E+000	9	...........	1467.43
	259	4.33333	1.59311E-001	-1.39591E-005	0.00000E+000	1.59001E-001	0.00000E+000	9	...........	1467.43
	261	4.36667	1.61310E-001	-1.38127E-005	0.00000E+000	1.61001E-001	0.00000E+000	9	...........	1467.43
	263	4.4	1.63309E-001	-1.37411E-005	0.00000E+000	1.63001E-001	0.00000E+000	9	...........	1467.43
	265	4.43333	1.65313E-001	-1.36342E-005	0.00000E+000	1.65001E-001	0.00000E+000	9	...........	1467.43
	267	4.46667	1.67313E-001	-1.34931E-005	0.00000E+000	1.67001E-001	0.00000E+000	9	...........	1467.43
	269	4.5	1.69314E-001	-1.34222E-005	0.00000E+000	1.69000E-001	0.00000E+000	9	...........	1467.43
	271	4.53333	1.71314E-001	-1.33127E-005	0.00000E+000	1.71000E-001	0.00000E+000	9	...........	1467.43
	273	4.56667	1.73316E-001	-1.31577E-005	0.00000E+000	1.73000E-001	0.00000E+000	9	...........	1467.43
	275	4.6	1.75315E-001	-1.30959E-005	0.00000E+000	1.75000E-001	0.00000E+000	9	...........	1467.43
	277	4.63333	1.77317E-001	-1.29923E-005	0.00000E+000	1.77000E-001	0.00000E+000	9	...........	1467.43
	279	4.66667	1.79319E-001	-1.28323E-005	0.00000E+000	1.78999E-001	0.00000E+000	9	...........	1467.43
	281	4.7	1.81318E-001	-1.27660E-005	0.00000E+000	1.80999E-001	0.00000E+000	9	...........	1467.43
	283	4.73333	1.83320E-001	-1.26501E-005	0.00000E+000	1.82999E-001	0.00000E+000	9	...........	1467.43
	285	4.76667	1.85319E-001	-1.24957E-005	0.00000E+000	1.84999E-001	0.00000E+000	9	...........	1467.43
	287	4.8	1.87320E-001	-1.24242E-005	0.00000E+000	1.86999E-001	0.00000E+000	9	...........	1467.43
	289	4.83333	1.89318E-001	-1.23099E-005	0.00000E+000	1.88998E-001	0.00000E+000	9	...........	1467.43
	291	4.86667	1.91321E-001	-1.21478E-005	0.00000E+000	1.90998E-001	0.00000E+000	9	...........	1467.43
	293	4.9	1.93323E-001	-1.20626E-005	0.00000E+000	1.92998E-001	0.00000E+000	9	...........	1467.43
	295	4.93333	1.95322E-001	-1.19423E-005	0.00000E+000	1.94998E-001	0.00000E+000	9	...........	1467.43
[...]
	433	7.23333	1.33306E-001	-1.54385E-005	0.00000E+000	1.33004E-001	0.00000E+000	9	...........	1467.43
	435	7.26667	1.35306E-001	-1.52867E-005	0.00000E+000	1.35004E-001	0.00000E+000	9	...........	1467.43
	437	7.3	1.37306E-001	-1.51613E-005	0.00000E+000	1.37004E-001	0.00000E+000	9	...........	1467.43
	439	7.33333	1.39307E-001	-1.50783E-005	0.00000E+000	1.39004E-001	0.00000E+000	9	...........	1467.43
	441	7.36667	1.41310E-001	-1.49293E-005	0.00000E+000	1.41003E-001	0.00000E+000	9	...........	1467.43
	443	7.4	1.43306E-001	-1.48077E-005	0.00000E+000	1.43003E-001	0.00000E+000	9	...........	1467.43
	445	7.43333	1.45307E-001	-1.47335E-005	0.00000E+000	1.45003E-001	0.00000E+000	9	...........	1467.43
	447	7.46667	1.47308E-001	-1.45949E-005	0.00000E+000	1.47003E-001	0.00000E+000	9	...........	1467.43
	449	7.5	1.49309E-001	-1.44714E-005	0.00000E+000	1.49003E-001	0.00000E+000	9	...........	1467.43
	451	7.53333	1.51308E-001	-1.43959E-005	0.00000E+000	1.51002E-001	0.00000E+000	9	...........	1467.43
	453	7.56667	1.53308E-001	-1.42538E-005	0.00000E+000	1.53002E-001	0.00000E+000	9	...........	1467.43
	455	7.6	1.55308E-001	-1.41428E-005	0.00000E+000	1.55002E-001	0.00000E+000	9	...........	1467.43
	457	7.63333	1.57306E-001	-1.40663E-005	0.00000E+000	1.57002E-001	0.00000E+000	9	...........	1467.43
	459	7.66667	1.59310E-001	-1.39286E-005	0.00000E+000	1.59001E-001	0.00000E+000	9	...........	1467.43
	461	7.7	1.61309E-001	-1.38072E-005	0.00000E+000	1.61001E-001	0.00000E+000	9	...........	1467.34
	463	7.73333	1.63308E-001	-1.37453E-005	0.00000E+000	1.63001E-001	0.00000E+000	9	...........	1467.34
	465	7.76667	1.65309E-001	-1.36151E-005	0.00000E+000	1.65001E-001	0.00000E+000	9	...........	1467.34
	467	7.8	1.67310E-001	-1.34842E-005	0.00000E+000	1.67001E-001	0.00000E+000	9	...........	1467.34
	469	7.83333	1.69312E-001	-1.34203E-005	0.00000E+000	1.69000E-001	0.00000E+000	9	...........	1467.34
	471	7.86667	1.71314E-001	-1.32891E-005	0.00000E+000	1.71000E-001	0.00000E+000	9	...........	1467.34
	473	7.9	1.73315E-001	-1.31546E-005	0.00000E+000	1.73000E-001	0.00000E+000	9	...........	1467.34
	475	7.93333	1.75314E-001	-1.30916E-005	0.00000E+000	1.75000E-001	0.00000E+000	9	...........	1467.34
	477	7.96667	1.77317E-001	-1.29430E-005	0.00000E+000	1.77000E-001	0.00000E+000	9	...........	1467.34
	479	8	1.79322E-001	-1.28287E-005	0.00000E+000	1.78999E-001	0.00000E+000	9	...........	1467.34
	481	8.03333	1.81318E-001	-1.27641E-005	0.00000E+000	1.80999E-001	0.00000E+000	9	...........	1467.34
	483	8.06667	1.83322E-001	-1.26229E-005	0.00000E+000	1.82999E-001	0.00000E+000	9	...........	1467.34
	485	8.1	1.85320E-001	-1.24902E-005	0.00000E+000	1.84999E-001	0.00000E+000	9	...........	1467.34
	487	8.13333	1.87322E-001	-1.24183E-005	0.00000E+000	1.86999E-001	0.00000E+000	9	...........	1467.34
	489	8.16667	1.89318E-001	-1.22820E-005	0.00000E+000	1.88998E-001	0.00000E+000	9	...........	1467.34
	491	8.2	1.91323E-001	-1.21346E-005	0.00000E+000	1.90998E-001	0.00000E+000	9	...........	1467.34
	493	8.23333	1.93323E-001	-1.20622E-005	0.00000E+000	1.92998E-001	0.00000E+000	9	...........	1467.34
	495	8.26667	1.95320E-001	-1.19188E-005	0.00000E+000	1.94998E-001	0.00000E+000	9	...........	1467.34
	497	8.3	1.97324E-001	-1.17704E-005	0.00000E+000	1.96998E-001	0.00000E+000	9	...........	1467.34
	499	8.33333	1.99324E-001	-1.16803E-005	0.00000E+000	1.98997E-001	0.00000E+000	9	...........	1467.34
	501	8.36667	1.99351E-001	-1.64668E-005	0.00000E+000	1.98997E-001	0.00000E+000	9	...........	1467.34
	503	8.4	1.97351E-001	-1.71418E-005	0.00000E+000	1.96998E-001	0.00000E+000	9	...........	1467.34
	505	8.43333	1.95349E-001	-1.75542E-005	0.00000E+000	1.94998E-001	0.00000E+000	9	...........	1467.34
	507	8.46667	1.93350E-001	-1.78223E-005	0.00000E+000	1.92998E-001	0.00000E+000	9	...........	1467.34
	509	8.5	1.91350E-001	-1.80235E-005	0.00000E+000	1.90998E-001	0.00000E+000	9	...........	1467.34
	511	8.53333	1.89347E-001	-1.82735E-005	0.00000E+000	1.88998E-001	0.00000E+000	9	...........	1467.34
	513	8.56667	1.87351E-001	-1.84300E-005	0.00000E+000	1.86999E-001	0.00000E+000	9	...........	1467.34
	515	8.6	1.85348E-001	-1.85672E-005	0.00000E+000	1.84999E-001	0.00000E+000	9	...........	1467.34
	517	8.63333	1.83347E-001	-1.87694E-005	0.00000E+000	1.82999E-001	0.00000E+000	9	...........	1467.34
	519	8.66667	1.81346E-001	-1.88883E-005	0.00000E+000	1.80999E-001	0.00000E+000	9	...........	1467.34
	521	8.7	1.79349E-001	-1.89891E-005	0.00000E+000	1.78999E-001	0.00000E+000	9	...........	1467.43
	523	8.73333	1.77343E-001	-1.91678E-005	0.00000E+000	1.77000E-001	0.00000E+000	9	...........	1467.43
	525	8.76667	1.75341E-001	-1.92630E-005	0.00000E+000	1.75000E-001	0.00000E+000	9	...........	1467.43
	527	8.8	1.73341E-001	-1.93539E-005	0.00000E+000	1.73000E-001	0.00000E+000	9	...........	1467.43
	529	8.83333	1.71340E-001	-1.95098E-005	0.00000E+000	1.71000E-001	0.00000E+000	9	...........	1467.43
	531	8.86667	1.69337E-001	-1.96097E-005	0.00000E+000	1.69000E-001	0.00000E+000	9	...........	1467.43
	533	8.9	1.67339E-001	-1.96774E-005	0.00000E+000	1.67001E-001	0.00000E+000	9	...........	1467.43
	535	8.93333	1.65339E-001	-1.98294E-005	0.00000E+000	1.65001E-001	0.00000E+000	9	...........	1467.43
	537	8.96667	1.63336E-001	-1.99253E-005	0.00000E+000	1.63001E-001	0.00000E+000	9	...........	1467.43
	539	9	1.61337E-001	-1.99875E-005	0.00000E+000	1.61001E-001	0.00000E+000	9	...........	1467.43
	541	9.03333	1.59336E-001	-2.01383E-005	0.00000E+000	1.59001E-001	0.00000E+000	9	...........	1467.43
	543	9.06667	1.57332E-001	-2.02315E-005	0.00000E+000	1.57002E-001	0.00000E+000	9	...........	1467.43
	545	9.1	1.55333E-001	-2.02898E-005	0.00000E+000	1.55002E-001	0.00000E+000	9	...........	1467.43
	547	9.13333	1.53332E-001	-2.04398E-005	0.00000E+000	1.53002E-001	0.00000E+000	9	...........	1467.43
	549	9.16667	1.51333E-001	-2.05187E-005	0.00000E+000	1.51002E-001	0.00000E+000	9	...........	1467.43
	551	9.2	1.49337E-001	-2.05680E-005	0.00000E+000	1.49003E-001	0.00000E+000	9	...........	1467.43
	553	9.23333	1.47336E-001	-2.07258E-005	0.00000E+000	1.47003E-001	0.00000E+000	9	...........	1467.43
	555	9.26667	1.45335E-001	-2.08283E-005	0.00000E+000	1.45003E-001	0.00000E+000	9	...........	1467.43
	557	9.3	1.43333E-001	-2.08721E-005	0.00000E+000	1.43003E-001	0.00000E+000	9	...........	1467.43
	559	9.33333	1.41336E-001	-2.10149E-005	0.00000E+000	1.41003E-001	0.00000E+000	9	...........	1467.43
	561	9.36667	1.39332E-001	-2.11095E-005	0.00000E+000	1.39004E-001	0.00000E+000	9	...........	1467.43
	563	9.4	1.37331E-001	-2.11788E-005	0.00000E+000	1.37004E-001	0.00000E+000	9	...........	1467.43
	565	9.43333	1.35332E-001	-2.13154E-005	0.00000E+000	1.35004E-001	0.00000E+000	9	...........	1467.43
	567	9.46667	1.33333E-001	-2.14273E-005	0.00000E+000	1.33004E-001	0.00000E+000	9	...........	1467.43
	569	9.5	1.31330E-001	-2.14802E-005	0.00000E+000	1.31004E-001	0.00000E+000	9	...........	1467.43
	571	9.5333	1.29333E-001	-2.16206E-005	0.00000E+000	1.29005E-001	0.00000E+000	9	...........	1467.43
	573	9.5667	1.27330E-001	-2.17262E-005	0.00000E+000	1.27005E-001	0.00000E+000	9	...........	1467.43
	575	9.6	1.25329E-001	-2.17967E-005	0.00000E+000	1.25005E-001	0.00000E+000	9	...........	1467.43
	577	9.6333	1.23328E-001	-2.19361E-005	0.00000E+000	1.23005E-001	0.00000E+000	9	...........	1467.43
	579	9.6667	1.21327E-001	-2.20506E-005	0.00000E+000	1.21005E-001	0.00000E+000	9	...........	1467.43
	581	9.7	1.19325E-001	-2.21129E-005	0.00000E+000	1.19006E-001	0.00000E+000	9	...........	1467.43
	583	9.7333	1.17323E-001	-2.22624E-005	0.00000E+000	1.17006E-001	0.00000E+000	9	...........	1467.43
	585	9.7667	1.15325E-001	-2.23778E-005	0.00000E+000	1.15006E-001	0.00000E+000	9	...........	1467.43
	587	9.8	1.13324E-001	-2.24485E-005	0.00000E+000	1.13006E-001	0.00000E+000	9	...........	1467.43
	589	9.8333	1.11307E-001	-2.26016E-005	0.00000E+000	1.10994E-001	0.00000E+000	9	...........	1467.43
	591	9.8667	1.09310E-001	-2.27271E-005	0.00000E+000	1.08994E-001	0.00000E+000	9	...........	1467.43
	593	9.9	1.07308E-001	-2.28047E-005	0.00000E+000	1.06994E-001	0.00000E+000	9	...........	1467.43
	595	9.9333	1.05307E-001	-2.29561E-005	0.00000E+000	1.04994E-001	0.00000E+000	9	...........	1467.43
	597	9.9667	1.03307E-001	-2.30858E-005	0.00000E+000	1.02995E-001	0.00000E+000	9	...........	1467.43
	599	10	1.01307E-001	-2.31744E-005	0.00000E+000	1.00995E-001	0.00000E+000	9	...........	1467.43
	600	10.0167	1.00306E-001	-2.32399E-005	0.00000E+000	9.99950E-002	0.00000E+000	9	...........	1467.43
CURVE4	TABLE
	Pt	T	Vf	Im	Vu	Sig	Ach	IERange	Over	Temp
	#	s	V vs. Ref.	A	V	V	V	#	bits	deg C
	601	10.0333	1.00295E-001	-2.08147E-005	0.00000E+000	9.99950E-002	0.00000E+000	9	...........	1467.43