File: input/CV_ECSA_#1_#4.DTA
EXPLAIN
TAG	CV
TITLE	LABEL	ECSA	Test Identifier
DATE	LABEL	20.8.2024	Date
TIME	LABEL	8:37:52	Time
NOTES	NOTES	1	Notes...

PSTAT	PSTAT	IFC1010-36105	Potentiostat
VINIT	POTEN	-2.00000E-001	F	A Potential (V)
VLIMIT1	POTEN	0.00000E+000	F	A Potential (V)
VLIMIT2	POTEN	-2.00000E-001	F	A Potential (V)
VFINAL	POTEN	-2.00000E-001	F	A Potential (V)
SCANRATE	QUANT	3.99999E+001	A Real Number
STEPSIZE	QUANT	1.00000E+000	Step Size (mV)
CYCLES	IQUANT	3	Cycles (#)
IMODE	SELECTOR	1	I/E Range Mode
IRANGE	QUANT	3.00000E-001	Max Current (mA)
AREA	QUANT	1.00000E+000	Sample Area (cm^2)
EQDELAY	QUANT	0.00000E+000	Equil. Time (s)
IRCOMP	SELECTOR	0	IRComp
PFCOR	QUANT	5.00000E+001	PF Corr. (ohm)
SAMPLINGMODE	SELECTOR	2	Sampling Mode
EOC	QUANT	-0.1790659	Open Circuit (V)
ELECTRODETYPE	SELECTOR	0	Electrode Type
STRIPPING	TOGGLE	F	Used for Stripping
SEQUENCER	TOGGLE	TRUE	Run as Sequence
PSTATMODEL	IQUANT	64	Pstat Model
PSTATSECTION	LABEL	IFC1010-36105	Pstat Section
PSTATSERIALNO	LABEL	36105	Pstat Serial Number
CTRLMODE	IQUANT	1	Control Mode
ELECTROMETER	IQUANT	0	RE=0 or CS=1
IESTAB	IQUANT	2	I/E Stability
CASPEED	IQUANT	4	Control Amp Speed
CONVENTION	IQUANT	1	Current Convention
ICHRANGE	IQUANT	2	Ich Range
ICHRANGEMODE	TOGGLE	F	Ich Auto Range
ICHOFFSETENABLE	TOGGLE	F	Ich Offset Enable
ICHOFFSET	QUANT	0	Ich Offset (V)
ICHFILTER	IQUANT	3	Ich Filter
VCHRANGE	IQUANT	1	Vch Range
VCHRANGEMODE	TOGGLE	F	Vch Auto Range
VCHOFFSETENABLE	TOGGLE	F	Vch Offset Enable
VCHOFFSET	QUANT	0	Vch Offset (V)
VCHFILTER	IQUANT	3	Vch Filter
IERANGELOWERLIMIT	IQUANT	4	I/E Range Lower Limit
IERANGEMODE	TOGGLE	F	I/E AutoRange
IERANGE	IQUANT	9	I/E Range
ACHSELECT	IQUANT	0	Ach Select
ACHRANGE	IQUANT	2	Ach Range
ACHOFFSETENABLE	TOGGLE	F	Ach Offset Enable
ACHOFFSET	QUANT	0	Ach Offset (V)
ACHFILTER	IQUANT	1	Ach Filter
SENSECABLEID	IQUANT	13	Sense Cable ID
PWRCABLEID	IQUANT	13	Power Cable ID
DCCALDATE	LABEL	10/17/2023	DC Calibration Date
ACCALDATE	LABEL	6/2/2023	AC Calibration Date
FRAMEWORKVERSION	LABEL	7.10.3	Framework Version
INSTRUMENTVERSION	LABEL	4.91	Instrument Version
COMMVERSION	LABEL	3.10	Communications Version
CPUPLDVERSION	LABEL	2.22	CPU PLD Version
CTRLPLDVERSION	LABEL	0.00	CTRL PLD Version
PSTATPLDVERSION	LABEL	0.00	PSTAT PLD Version
CURVE1	TABLE
	Pt	T	Vf	Im	Vu	Sig	Ach	IERange	Over	Temp
	#	s	V vs. Ref.	A	V	V	V	#	bits	deg C
	0	0.025	-2.00081E-001	-2.25718E-007	0.00000E+000	-1.99996E-001	0.00000E+000	9	...........	1488.78
	4	0.125	-1.96090E-001	1.11912E-006	0.00000E+000	-1.95995E-001	0.00000E+000	9	...........	1488.78
	8	0.225	-1.92085E-001	1.22982E-006	0.00000E+000	-1.91994E-001	0.00000E+000	9	...........	1488.78
	12	0.325	-1.88095E-001	1.29636E-006	0.00000E+000	-1.88006E-001	0.00000E+000	9	...........	1488.69
	16	0.425	-1.84094E-001	1.35410E-006	0.00000E+000	-1.84005E-001	0.00000E+000	9	...........	1488.69
	20	0.525	-1.80092E-001	1.39637E-006	0.00000E+000	-1.80004E-001	0.00000E+000	9	...........	1488.69
	24	0.625	-1.76090E-001	1.42355E-006	0.00000E+000	-1.76002E-001	0.00000E+000	9	...........	1488.69
	28	0.725	-1.72089E-001	1.45451E-006	0.00000E+000	-1.72001E-001	0.00000E+000	9	...........	1488.69
	32	0.825	-1.68086E-001	1.46466E-006	0.00000E+000	-1.68000E-001	0.00000E+000	9	...........	1488.69
	36	0.925	-1.64084E-001	1.49110E-006	0.00000E+000	-1.63999E-001	0.00000E+000	9	...........	1488.69
	40	1.025	-1.60082E-001	1.51791E-006	0.00000E+000	-1.59998E-001	0.00000E+000	9	...........	1488.69
	44	1.125	-1.56083E-001	1.52499E-006	0.00000E+000	-1.55997E-001	0.00000E+000	9	...........	1488.69
	48	1.225	-1.52079E-001	1.53679E-006	0.00000E+000	-1.51996E-001	0.00000E+000	9	...........	1488.69
	52	1.325	-1.48081E-001	1.54249E-006	0.00000E+000	-1.47995E-001	0.00000E+000	9	...........	1488.78
	56	1.425	-1.44077E-001	1.55155E-006	0.00000E+000	-1.43994E-001	0.00000E+000	9	...........	1488.78
	60	1.525	-1.40089E-001	1.56855E-006	0.00000E+000	-1.40005E-001	0.00000E+000	9	...........	1488.78
	64	1.625	-1.36088E-001	1.57387E-006	0.00000E+000	-1.36004E-001	0.00000E+000	9	...........	1488.78
	68	1.725	-1.32085E-001	1.58197E-006	0.00000E+000	-1.32003E-001	0.00000E+000	9	...........	1488.78
	72	1.825	-1.28083E-001	1.58291E-006	0.00000E+000	-1.28002E-001	0.00000E+000	9	...........	1488.78
	76	1.925	-1.24083E-001	1.59504E-006	0.00000E+000	-1.24001E-001	0.00000E+000	9	...........	1488.78
	80	2.025	-1.20081E-001	1.60271E-006	0.00000E+000	-1.20000E-001	0.00000E+000	9	...........	1488.78
	84	2.125	-1.16082E-001	1.60749E-006	0.00000E+000	-1.15999E-001	0.00000E+000	9	...........	1488.78
	88	2.225	-1.12079E-001	1.61905E-006	0.00000E+000	-1.11998E-001	0.00000E+000	9	...........	1488.78
	92	2.325	-1.08076E-001	1.63515E-006	0.00000E+000	-1.07997E-001	0.00000E+000	9	...........	1488.69
	96	2.425	-1.04079E-001	1.63673E-006	0.00000E+000	-1.03996E-001	0.00000E+000	9	...........	1488.69
	100	2.525	-1.00075E-001	1.63689E-006	0.00000E+000	-9.99947E-002	0.00000E+000	9	...........	1488.69
	104	2.625	-9.60848E-002	1.64733E-006	0.00000E+000	-9.60061E-002	0.00000E+000	9	...........	1488.69
	108	2.725	-9.20848E-002	1.65446E-006	0.00000E+000	-9.20050E-002	0.00000E+000	9	...........	1488.69
	112	2.825	-8.80819E-002	1.65971E-006	0.00000E+000	-8.80040E-002	0.00000E+000	9	...........	1488.69
	116	2.925	-8.40794E-002	1.67004E-006	0.00000E+000	-8.40029E-002	0.00000E+000	9	...........	1488.69
	120	3.025	-8.00800E-002	1.66822E-006	0.00000E+000	-8.00018E-002	0.00000E+000	9	...........	1488.69
	124	3.125	-7.60783E-002	1.68606E-006	0.00000E+000	-7.60008E-002	0.00000E+000	9	...........	1488.69
	128	3.225	-7.20750E-002	1.69532E-006	0.00000E+000	-7.19997E-002	0.00000E+000	9	...........	1488.69
	132	3.325	-6.80722E-002	1.69919E-006	0.00000E+000	-6.79986E-002	0.00000E+000	9	...........	1488.69
	136	3.425	-6.40697E-002	1.71443E-006	0.00000E+000	-6.39976E-002	0.00000E+000	9	...........	1488.69
	140	3.525	-6.00682E-002	1.72572E-006	0.00000E+000	-5.99965E-002	0.00000E+000	9	...........	1488.69
	144	3.625	-5.60663E-002	1.73540E-006	0.00000E+000	-5.59954E-002	0.00000E+000	9	...........	1488.69
	148	3.725	-5.20647E-002	1.74019E-006	0.00000E+000	-5.19943E-002	0.00000E+000	9	...........	1488.69
	152	3.825	-4.80768E-002	1.74790E-006	0.00000E+000	-4.80058E-002	0.00000E+000	9	...........	1488.69
	156	3.925	-4.40756E-002	1.76522E-006	0.00000E+000	-4.40047E-002	0.00000E+000	9	...........	1488.69
	160	4.025	-4.00734E-002	1.77183E-006	0.00000E+000	-4.00036E-002	0.00000E+000	9	...........	1488.69
	164	4.125	-3.60672E-002	1.78820E-006	0.00000E+000	-3.60026E-002	0.00000E+000	9	...........	1488.69
	168	4.225	-3.20647E-002	1.80804E-006	0.00000E+000	-3.20015E-002	0.00000E+000	9	...........	1488.69
	172	4.325	-2.80620E-002	1.82452E-006	0.00000E+000	-2.80004E-002	0.00000E+000	9	...........	1488.69
	176	4.425	-2.40593E-002	1.83811E-006	0.00000E+000	-2.39994E-002	0.00000E+000	9	...........	1488.69
	180	4.525	-2.00581E-002	1.86594E-006	0.00000E+000	-1.99983E-002	0.00000E+000	9	...........	1488.69
	184	4.625	-1.60569E-002	1.87957E-006	0.00000E+000	-1.59972E-002	0.00000E+000	9	...........	1488.69
	188	4.725	-1.20525E-002	1.89360E-006	0.00000E+000	-1.19962E-002	0.00000E+000	9	...........	1488.69
	192	4.825	-8.05083E-003	1.91173E-006	0.00000E+000	-7.99508E-003	0.00000E+000	9	...........	1488.69
	196	4.925	-4.06010E-003	1.92575E-006	0.00000E+000	-4.00651E-003	0.00000E+000	9	...........	1488.69
	200	5.025	-5.83447E-005	1.96245E-006	0.00000E+000	-5.44637E-006	0.00000E+000	9	...........	1488.69
	204	5.125	-4.04175E-003	-1.76856E-008	0.00000E+000	-4.00651E-003	0.00000E+000	9	...........	1488.69
	208	5.225	-8.03240E-003	-1.21991E-007	0.00000E+000	-7.99508E-003	0.00000E+000	9	...........	1488.69
	212	5.325	-1.20355E-002	-1.80424E-007	0.00000E+000	-1.19962E-002	0.00000E+000	9	...........	1488.88
	216	5.425	-1.60388E-002	-2.38189E-007	0.00000E+000	-1.59972E-002	0.00000E+000	9	...........	1488.88
	220	5.525	-2.00416E-002	-2.75822E-007	0.00000E+000	-1.99983E-002	0.00000E+000	9	...........	1488.88
	224	5.625	-2.40420E-002	-3.05751E-007	0.00000E+000	-2.39994E-002	0.00000E+000	9	...........	1488.88
	228	5.725	-2.80444E-002	-3.39377E-007	0.00000E+000	-2.80004E-002	0.00000E+000	9	...........	1488.88
	232	5.825	-3.20486E-002	-3.72935E-007	0.00000E+000	-3.20015E-002	0.00000E+000	9	...........	1488.88
	236	5.925	-3.60479E-002	-3.97698E-007	0.00000E+000	-3.60026E-002	0.00000E+000	9	...........	1488.88
	240	6.025	-4.00548E-002	-4.19543E-007	0.00000E+000	-4.00036E-002	0.00000E+000	9	...........	1488.88
	244	6.125	-4.40568E-002	-4.46644E-007	0.00000E+000	-4.40047E-002	0.00000E+000	9	...........	1488.88
	248	6.225	-4.80592E-002	-4.61497E-007	0.00000E+000	-4.80058E-002	0.00000E+000	9	...........	1488.88
	252	6.325	-5.20472E-002	-4.82385E-007	0.00000E+000	-5.19943E-002	0.00000E+000	9	...........	1488.69
	256	6.425	-5.60505E-002	-5.10399E-007	0.00000E+000	-5.59954E-002	0.00000E+000	9	...........	1488.69
	260	6.525	-6.00536E-002	-5.35473E-007	0.00000E+000	-5.99965E-002	0.00000E+000	9	...........	1488.69
	264	6.625	-6.40535E-002	-5.46073E-007	0.00000E+000	-6.39976E-002	0.00000E+000	9	...........	1488.69
	268	6.725	-6.80554E-002	-5.62552E-007	0.00000E+000	-6.79986E-002	0.00000E+000	9	...........	1488.69
	272	6.825	-7.20595E-002	-5.88205E-007	0.00000E+000	-7.19997E-002	0.00000E+000	9	...........	1488.69
	276	6.925	-7.60591E-002	-6.02680E-007	0.00000E+000	-7.60008E-002	0.00000E+000	9	...........	1488.69
	280	7.025	-8.00625E-002	-6.22231E-007	0.00000E+000	-8.00018E-002	0.00000E+000	9	...........	1488.69
	284	7.125	-8.40615E-002	-6.40692E-007	0.00000E+000	-8.40029E-002	0.00000E+000	9	...........	1488.69
	288	7.225	-8.80633E-002	-6.57438E-007	0.00000E+000	-8.80040E-002	0.00000E+000	9	...........	1488.69
	292	7.325	-9.20670E-002	-6.83626E-007	0.00000E+000	-9.20050E-002	0.00000E+000	9	...........	1488.97
	296	7.425	-9.60685E-002	-6.98924E-007	0.00000E+000	-9.60061E-002	0.00000E+000	9	...........	1488.97
	300	7.525	-1.00058E-001	-7.10637E-007	0.00000E+000	-9.99947E-002	0.00000E+000	9	...........	1488.97
	304	7.625	-1.04062E-001	-7.34665E-007	0.00000E+000	-1.03996E-001	0.00000E+000	9	...........	1488.97
	308	7.725	-1.08057E-001	-7.61365E-007	0.00000E+000	-1.07997E-001	0.00000E+000	9	...........	1488.97
	312	7.825	-1.12062E-001	-7.71764E-007	0.00000E+000	-1.11998E-001	0.00000E+000	9	...........	1488.97
	316	7.925	-1.16065E-001	-7.96059E-007	0.00000E+000	-1.15999E-001	0.00000E+000	9	...........	1488.97
	320	8.025	-1.20063E-001	-8.16591E-007	0.00000E+000	-1.20000E-001	0.00000E+000	9	...........	1488.97
	324	8.125	-1.24066E-001	-8.33760E-007	0.00000E+000	-1.24001E-001	0.00000E+000	9	...........	1488.97
	328	8.225	-1.28067E-001	-8.54536E-007	0.00000E+000	-1.28002E-001	0.00000E+000	9	...........	1488.97
	332	8.325	-1.32069E-001	-8.82149E-007	0.00000E+000	-1.32003E-001	0.00000E+000	9	...........	1488.69
	336	8.425	-1.36071E-001	-8.89387E-007	0.00000E+000	-1.36004E-001	0.00000E+000	9	...........	1488.69
	340	8.525	-1.40074E-001	-9.20941E-007	0.00000E+000	-1.40005E-001	0.00000E+000	9	...........	1488.69
	344	8.625	-1.44063E-001	-9.30450E-007	0.00000E+000	-1.43994E-001	0.00000E+000	9	...........	1488.69
	348	8.725	-1.48066E-001	-9.66413E-007	0.00000E+000	-1.47995E-001	0.00000E+000	9	...........	1488.69
	352	8.825	-1.52063E-001	-9.81667E-007	0.00000E+000	-1.51996E-001	0.00000E+000	9	...........	1488.69
	356	8.925	-1.56067E-001	-1.01823E-006	0.00000E+000	-1.55997E-001	0.00000E+000	9	...........	1488.69
	360	9.025	-1.60068E-001	-1.04335E-006	0.00000E+000	-1.59998E-001	0.00000E+000	9	...........	1488.69
	364	9.125	-1.64070E-001	-1.07940E-006	0.00000E+000	-1.63999E-001	0.00000E+000	9	...........	1488.69
	368	9.225	-1.68069E-001	-1.10630E-006	0.00000E+000	-1.68000E-001	0.00000E+000	9	...........	1488.69
	372	9.325	-1.72071E-001	-1.13991E-006	0.00000E+000	-1.72001E-001	0.00000E+000	9	...........	1488.97
	376	9.425	-1.76073E-001	-1.18505E-006	0.00000E+000	-1.76002E-001	0.00000E+000	9	...........	1488.97
	380	9.525	-1.80074E-001	-1.22876E-006	0.00000E+000	-1.80004E-001	0.00000E+000	9	...........	1488.97
	384	9.625	-1.84075E-001	-1.27559E-006	0.00000E+000	-1.84005E-001	0.00000E+000	9	...........	1488.97
	388	9.725	-1.88077E-001	-1.32868E-006	0.00000E+000	-1.88006E-001	0.00000E+000	9	...........	1488.97
	392	9.825	-1.92066E-001	-1.39339E-006	0.00000E+000	-1.91994E-001	0.00000E+000	9	...........	1488.97
	396	9.925	-1.96071E-001	-1.46095E-006	0.00000E+000	-1.95995E-001	0.00000E+000	9	...........	1488.97
	400	10.025	-2.00071E-001	-1.53301E-006	0.00000E+000	-1.99996E-001	0.00000E+000	9	...........	1488.97
CURVE2	TABLE
	Pt	T	Vf	Im	Vu	Sig	Ach	IERange	Over	Temp
	#	s	V vs. Ref.	A	V	V	V	#	bits	deg C
	401	10.05	-1.99090E-001	8.01573E-007	0.00000E+000	-1.98996E-001	0.00000E+000	9	...........	1488.97
	406	10.175	-1.94085E-001	1.11883E-006	0.00000E+000	-1.93995E-001	0.00000E+000	9	...........	1488.97
	411	10.3	-1.89094E-001	1.22995E-006	0.00000E+000	-1.89006E-001	0.00000E+000	9	...........	1488.86
	416	10.425	-1.84092E-001	1.31268E-006	0.00000E+000	-1.84005E-001	0.00000E+000	9	...........	1488.69
	421	10.55	-1.79090E-001	1.37091E-006	0.00000E+000	-1.79003E-001	0.00000E+000	9	...........	1488.69
	426	10.675	-1.74089E-001	1.41436E-006	0.00000E+000	-1.74002E-001	0.00000E+000	9	...........	1488.69
	431	10.8	-1.69085E-001	1.44649E-006	0.00000E+000	-1.69001E-001	0.00000E+000	9	...........	1488.69
	436	10.925	-1.64086E-001	1.47580E-006	0.00000E+000	-1.63999E-001	0.00000E+000	9	...........	1488.69
	441	11.05	-1.59081E-001	1.49199E-006	0.00000E+000	-1.58998E-001	0.00000E+000	9	...........	1488.69
	446	11.175	-1.54081E-001	1.51900E-006	0.00000E+000	-1.53997E-001	0.00000E+000	9	...........	1488.69
	451	11.3	-1.49082E-001	1.52675E-006	0.00000E+000	-1.48995E-001	0.00000E+000	9	...........	1488.81
	456	11.425	-1.44079E-001	1.54118E-006	0.00000E+000	-1.43994E-001	0.00000E+000	9	...........	1488.97
	461	11.55	-1.39089E-001	1.54977E-006	0.00000E+000	-1.39005E-001	0.00000E+000	9	...........	1488.97
	466	11.675	-1.34088E-001	1.55100E-006	0.00000E+000	-1.34004E-001	0.00000E+000	9	...........	1488.97
	471	11.8	-1.29087E-001	1.57373E-006	0.00000E+000	-1.29002E-001	0.00000E+000	9	...........	1488.97
	476	11.925	-1.24084E-001	1.57342E-006	0.00000E+000	-1.24001E-001	0.00000E+000	9	...........	1488.97
	481	12.05	-1.19082E-001	1.58266E-006	0.00000E+000	-1.19000E-001	0.00000E+000	9	...........	1488.97
	486	12.175	-1.14076E-001	1.60446E-006	0.00000E+000	-1.13998E-001	0.00000E+000	9	...........	1488.97
	491	12.3	-1.09076E-001	1.60328E-006	0.00000E+000	-1.08997E-001	0.00000E+000	9	...........	1488.84
	496	12.425	-1.04077E-001	1.61591E-006	0.00000E+000	-1.03996E-001	0.00000E+000	9	...........	1488.69
	501	12.55	-9.90738E-002	1.62925E-006	0.00000E+000	-9.89944E-002	0.00000E+000	9	...........	1488.69
	506	12.675	-9.40821E-002	1.63047E-006	0.00000E+000	-9.40056E-002	0.00000E+000	9	...........	1488.69
	511	12.8	-8.90818E-002	1.64203E-006	0.00000E+000	-8.90042E-002	0.00000E+000	9	...........	1488.69
	516	12.925	-8.40779E-002	1.65167E-006	0.00000E+000	-8.40029E-002	0.00000E+000	9	...........	1488.69
	521	13.05	-7.90801E-002	1.65354E-006	0.00000E+000	-7.90016E-002	0.00000E+000	9	...........	1488.69
	526	13.175	-7.40778E-002	1.66183E-006	0.00000E+000	-7.40002E-002	0.00000E+000	9	...........	1488.69
	531	13.3	-6.90715E-002	1.68316E-006	0.00000E+000	-6.89989E-002	0.00000E+000	9	...........	1488.87
	536	13.425	-6.40708E-002	1.69964E-006	0.00000E+000	-6.39976E-002	0.00000E+000	9	...........	1489.06
	541	13.55	-5.90678E-002	1.70690E-006	0.00000E+000	-5.89962E-002	0.00000E+000	9	...........	1489.06
	546	13.675	-5.40656E-002	1.72543E-006	0.00000E+000	-5.39949E-002	0.00000E+000	9	...........	1489.06
	551	13.8	-4.90741E-002	1.74021E-006	0.00000E+000	-4.90060E-002	0.00000E+000	9	...........	1489.06
	556	13.925	-4.40739E-002	1.75907E-006	0.00000E+000	-4.40047E-002	0.00000E+000	9	...........	1489.06
	561	14.05	-3.90715E-002	1.77008E-006	0.00000E+000	-3.90034E-002	0.00000E+000	9	...........	1489.06
	566	14.175	-3.40674E-002	1.78940E-006	0.00000E+000	-3.40020E-002	0.00000E+000	9	...........	1489.06
	571	14.3	-2.90661E-002	1.81221E-006	0.00000E+000	-2.90007E-002	0.00000E+000	9	...........	1488.87
	576	14.425	-2.40614E-002	1.83882E-006	0.00000E+000	-2.39994E-002	0.00000E+000	9	...........	1488.69
	581	14.55	-1.90557E-002	1.86454E-006	0.00000E+000	-1.89980E-002	0.00000E+000	9	...........	1488.69
	586	14.675	-1.40554E-002	1.87182E-006	0.00000E+000	-1.39967E-002	0.00000E+000	9	...........	1488.69
	591	14.8	-9.05187E-003	1.89758E-006	0.00000E+000	-8.99535E-003	0.00000E+000	9	...........	1488.69
	596	14.925	-4.05981E-003	1.91393E-006	0.00000E+000	-4.00651E-003	0.00000E+000	9	...........	1488.69
	601	15.05	-1.04321E-003	1.35833E-007	0.00000E+000	-1.00572E-003	0.00000E+000	9	...........	1488.69
	606	15.175	-6.03477E-003	-8.82546E-008	0.00000E+000	-5.99455E-003	0.00000E+000	9	...........	1488.69
	611	15.3	-1.10350E-002	-1.74723E-007	0.00000E+000	-1.09959E-002	0.00000E+000	9	...........	1488.89
	616	15.425	-1.60415E-002	-2.32599E-007	0.00000E+000	-1.59972E-002	0.00000E+000	9	...........	1489.06
	621	15.55	-2.10438E-002	-2.91210E-007	0.00000E+000	-2.09986E-002	0.00000E+000	9	...........	1489.06
	626	15.675	-2.60464E-002	-3.31649E-007	0.00000E+000	-2.59999E-002	0.00000E+000	9	...........	1489.06
	631	15.8	-3.10469E-002	-3.70241E-007	0.00000E+000	-3.10012E-002	0.00000E+000	9	...........	1489.06
[...]
	800	20.025	-2.00075E-001	-1.52048E-006	0.00000E+000	-1.99996E-001	0.00000E+000	9	...........	1489.15
CURVE3	TABLE
	Pt	T	Vf	Im	Vu	Sig	Ach	IERange	Over	Temp
	#	s	V vs. Ref.	A	V	V	V	#	bits	deg C
	801	20.05	-1.99093E-001	8.02597E-007	0.00000E+000	-1.98996E-001	0.00000E+000	9	...........	1489.15
	806	20.175	-1.94086E-001	1.11772E-006	0.00000E+000	-1.93995E-001	0.00000E+000	9	...........	1489.15
	811	20.3	-1.89096E-001	1.24599E-006	0.00000E+000	-1.89006E-001	0.00000E+000	9	...........	1488.85
	816	20.425	-1.84092E-001	1.32018E-006	0.00000E+000	-1.84005E-001	0.00000E+000	9	...........	1488.69
	821	20.55	-1.79092E-001	1.37677E-006	0.00000E+000	-1.79003E-001	0.00000E+000	9	...........	1488.69
	826	20.675	-1.74091E-001	1.41558E-006	0.00000E+000	-1.74002E-001	0.00000E+000	9	...........	1488.69
	831	20.8	-1.69086E-001	1.45161E-006	0.00000E+000	-1.69001E-001	0.00000E+000	9	...........	1488.69
	836	20.925	-1.64087E-001	1.47181E-006	0.00000E+000	-1.63999E-001	0.00000E+000	9	...........	1488.69
	841	21.05	-1.59083E-001	1.49448E-006	0.00000E+000	-1.58998E-001	0.00000E+000	9	...........	1488.69
	846	21.175	-1.54082E-001	1.51824E-006	0.00000E+000	-1.53997E-001	0.00000E+000	9	...........	1488.69
	851	21.3	-1.49084E-001	1.52786E-006	0.00000E+000	-1.48995E-001	0.00000E+000	9	...........	1489.01
	856	21.425	-1.44080E-001	1.53799E-006	0.00000E+000	-1.43994E-001	0.00000E+000	9	...........	1489.15
	861	21.55	-1.39091E-001	1.55037E-006	0.00000E+000	-1.39005E-001	0.00000E+000	9	...........	1489.15
	866	21.675	-1.34089E-001	1.55982E-006	0.00000E+000	-1.34004E-001	0.00000E+000	9	...........	1489.15
	871	21.8	-1.29089E-001	1.55743E-006	0.00000E+000	-1.29002E-001	0.00000E+000	9	...........	1489.15
	876	21.925	-1.24085E-001	1.56541E-006	0.00000E+000	-1.24001E-001	0.00000E+000	9	...........	1489.15
	881	22.05	-1.19082E-001	1.58939E-006	0.00000E+000	-1.19000E-001	0.00000E+000	9	...........	1489.15
	886	22.175	-1.14078E-001	1.59406E-006	0.00000E+000	-1.13998E-001	0.00000E+000	9	...........	1489.15
	891	22.3	-1.09076E-001	1.60266E-006	0.00000E+000	-1.08997E-001	0.00000E+000	9	...........	1488.82
	896	22.425	-1.04076E-001	1.61771E-006	0.00000E+000	-1.03996E-001	0.00000E+000	9	...........	1488.69
	901	22.55	-9.90759E-002	1.61847E-006	0.00000E+000	-9.89944E-002	0.00000E+000	9	...........	1488.69
	906	22.675	-9.40820E-002	1.62500E-006	0.00000E+000	-9.40056E-002	0.00000E+000	9	...........	1488.69
	911	22.8	-8.90821E-002	1.63301E-006	0.00000E+000	-8.90042E-002	0.00000E+000	9	...........	1488.69
	916	22.925	-8.40785E-002	1.65185E-006	0.00000E+000	-8.40029E-002	0.00000E+000	9	...........	1488.69
	921	23.05	-7.90811E-002	1.65319E-006	0.00000E+000	-7.90016E-002	0.00000E+000	9	...........	1488.69
	926	23.175	-7.40771E-002	1.66457E-006	0.00000E+000	-7.40002E-002	0.00000E+000	9	...........	1488.69
	931	23.3	-6.90743E-002	1.68183E-006	0.00000E+000	-6.89989E-002	0.00000E+000	9	...........	1488.69
	936	23.425	-6.40704E-002	1.68697E-006	0.00000E+000	-6.39976E-002	0.00000E+000	9	...........	1488.69
	941	23.55	-5.90692E-002	1.70282E-006	0.00000E+000	-5.89962E-002	0.00000E+000	9	...........	1488.69
	946	23.675	-5.40678E-002	1.71732E-006	0.00000E+000	-5.39949E-002	0.00000E+000	9	...........	1488.69
	951	23.8	-4.90726E-002	1.73716E-006	0.00000E+000	-4.90060E-002	0.00000E+000	9	...........	1488.69
	956	23.925	-4.40738E-002	1.75498E-006	0.00000E+000	-4.40047E-002	0.00000E+000	9	...........	1488.69
	961	24.05	-3.90698E-002	1.76382E-006	0.00000E+000	-3.90034E-002	0.00000E+000	9	...........	1488.69
	966	24.175	-3.40679E-002	1.77353E-006	0.00000E+000	-3.40020E-002	0.00000E+000	9	...........	1488.69
	971	24.3	-2.90634E-002	1.79479E-006	0.00000E+000	-2.90007E-002	0.00000E+000	9	...........	1488.69
	976	24.425	-2.40605E-002	1.82325E-006	0.00000E+000	-2.39994E-002	0.00000E+000	9	...........	1488.69
	981	24.55	-1.90576E-002	1.83808E-006	0.00000E+000	-1.89980E-002	0.00000E+000	9	...........	1488.69
	986	24.675	-1.40534E-002	1.86149E-006	0.00000E+000	-1.39967E-002	0.00000E+000	9	...........	1488.69
	991	24.8	-9.05040E-003	1.88376E-006	0.00000E+000	-8.99535E-003	0.00000E+000	9	...........	1488.69
	996	24.925	-4.05917E-003	1.89193E-006	0.00000E+000	-4.00651E-003	0.00000E+000	9	...........	1488.69
	1001	25.05	-1.04181E-003	1.26169E-007	0.00000E+000	-1.00572E-003	0.00000E+000	9	...........	1488.69
	1006	25.175	-6.03223E-003	-9.43116E-008	0.00000E+000	-5.99455E-003	0.00000E+000	9	...........	1488.69
	1011	25.3	-1.10332E-002	-1.78776E-007	0.00000E+000	-1.09959E-002	0.00000E+000	9	...........	1488.69
	1016	25.425	-1.60379E-002	-2.43533E-007	0.00000E+000	-1.59972E-002	0.00000E+000	9	...........	1488.69
	1021	25.55	-2.10430E-002	-3.00095E-007	0.00000E+000	-2.09986E-002	0.00000E+000	9	...........	1488.69
	1026	25.675	-2.60470E-002	-3.29044E-007	0.00000E+000	-2.59999E-002	0.00000E+000	9	...........	1488.69
	1031	25.8	-3.10473E-002	-3.75496E-007	0.00000E+000	-3.10012E-002	0.00000E+000	9	...........	1488.69
	1036	25.925	-3.60487E-002	-4.07763E-007	0.00000E+000	-3.60026E-002	0.00000E+000	9	...........	1488.69
	1041	26.05	-4.10532E-002	-4.34218E-007	0.00000E+000	-4.10039E-002	0.00000E+000	9	...........	1488.69
	1046	26.175	-4.60567E-002	-4.75326E-007	0.00000E+000	-4.60052E-002	0.00000E+000	9	...........	1488.69
	1051	26.3	-5.10463E-002	-4.93675E-007	0.00000E+000	-5.09941E-002	0.00000E+000	9	...........	1488.69
	1056	26.425	-5.60490E-002	-5.20130E-007	0.00000E+000	-5.59954E-002	0.00000E+000	9	...........	1488.69
	1061	26.55	-6.10530E-002	-5.34315E-007	0.00000E+000	-6.09967E-002	0.00000E+000	9	...........	1488.69
	1066	26.675	-6.60562E-002	-5.76135E-007	0.00000E+000	-6.59981E-002	0.00000E+000	9	...........	1488.69
	1071	26.8	-7.10603E-002	-5.95309E-007	0.00000E+000	-7.09994E-002	0.00000E+000	9	...........	1488.69
	1076	26.925	-7.60612E-002	-6.12166E-007	0.00000E+000	-7.60008E-002	0.00000E+000	9	...........	1488.69
	1081	27.05	-8.10637E-002	-6.29290E-007	0.00000E+000	-8.10021E-002	0.00000E+000	9	...........	1488.69
	1086	27.175	-8.60629E-002	-6.61758E-007	0.00000E+000	-8.60034E-002	0.00000E+000	9	...........	1488.69
	1091	27.3	-9.10657E-002	-6.82713E-007	0.00000E+000	-9.10048E-002	0.00000E+000	9	...........	1488.69
	1096	27.425	-9.60684E-002	-7.02532E-007	0.00000E+000	-9.60061E-002	0.00000E+000	9	...........	1488.69
	1101	27.55	-1.01056E-001	-7.23174E-007	0.00000E+000	-1.00995E-001	0.00000E+000	9	...........	1488.69
	1106	27.675	-1.06059E-001	-7.47158E-007	0.00000E+000	-1.05996E-001	0.00000E+000	9	...........	1488.69
	1111	27.8	-1.11059E-001	-7.66531E-007	0.00000E+000	-1.10998E-001	0.00000E+000	9	...........	1488.69
	1116	27.925	-1.16064E-001	-7.91116E-007	0.00000E+000	-1.15999E-001	0.00000E+000	9	...........	1488.69
	1121	28.05	-1.21067E-001	-8.15522E-007	0.00000E+000	-1.21000E-001	0.00000E+000	9	...........	1488.69
	1126	28.175	-1.26067E-001	-8.39973E-007	0.00000E+000	-1.26002E-001	0.00000E+000	9	...........	1488.69
	1131	28.3	-1.31070E-001	-8.67987E-007	0.00000E+000	-1.31003E-001	0.00000E+000	9	...........	1488.69
	1136	28.425	-1.36072E-001	-8.90723E-007	0.00000E+000	-1.36004E-001	0.00000E+000	9	...........	1488.69
	1141	28.55	-1.41073E-001	-9.14550E-007	0.00000E+000	-1.41006E-001	0.00000E+000	9	...........	1488.69
	1146	28.675	-1.46062E-001	-9.45436E-007	0.00000E+000	-1.45994E-001	0.00000E+000	9	...........	1488.69
	1151	28.8	-1.51066E-001	-9.77191E-007	0.00000E+000	-1.50996E-001	0.00000E+000	9	...........	1488.69
	1156	28.925	-1.56068E-001	-1.00912E-006	0.00000E+000	-1.55997E-001	0.00000E+000	9	...........	1488.69
	1161	29.05	-1.61067E-001	-1.04491E-006	0.00000E+000	-1.60998E-001	0.00000E+000	9	...........	1488.69
	1166	29.175	-1.66067E-001	-1.08096E-006	0.00000E+000	-1.66000E-001	0.00000E+000	9	...........	1488.69
	1171	29.3	-1.71069E-001	-1.12503E-006	0.00000E+000	-1.71001E-001	0.00000E+000	9	...........	1488.69
	1176	29.425	-1.76074E-001	-1.17930E-006	0.00000E+000	-1.76002E-001	0.00000E+000	9	...........	1488.69
	1181	29.55	-1.81080E-001	-1.22996E-006	0.00000E+000	-1.81004E-001	0.00000E+000	9	...........	1488.69
	1186	29.675	-1.86080E-001	-1.29298E-006	0.00000E+000	-1.86005E-001	0.00000E+000	9	...........	1488.69
	1191	29.8	-1.91067E-001	-1.35489E-006	0.00000E+000	-1.90994E-001	0.00000E+000	9	...........	1488.69
	1196	29.925	-1.96072E-001	-1.44623E-006	0.00000E+000	-1.95995E-001	0.00000E+000	9	...........	1488.69
	1200	30.025	-2.00072E-001	-1.52030E-006	0.00000E+000	-1.99996E-001	0.00000E+000	9	...........	1488.69
CURVE4	TABLE
	Pt	T	Vf	Im	Vu	Sig	Ach	IERange	Over	Temp
	#	s	V vs. Ref.	A	V	V	V	#	bits	deg C
	1201	30.05	-2.00081E-001	-3.60955E-007	0.00000E+000	-1.99996E-001	0.00000E+000	9	...........	1488.69