File: input/CV_ECSA_#2_#10.DTA
EXPLAIN
TAG	CV
TITLE	LABEL	ECSA	Test Identifier
DATE	LABEL	17.7.2024	Date
TIME	LABEL	13:21:15	Time
NOTES	NOTES	1	Notes...

PSTAT	PSTAT	IFC1010-34090	Potentiostat
VINIT	POTEN	1.00000E-001	F	A Potential (V)
VLIMIT1	POTEN	2.00000E-001	F	A Potential (V)
VLIMIT2	POTEN	1.00000E-001	F	A Potential (V)
VFINAL	POTEN	1.00000E-001	F	A Potential (V)
SCANRATE	QUANT	9.99548E+001	A Real Number
STEPSIZE	QUANT	1.00000E+000	Step Size (mV)
CYCLES	IQUANT	3	Cycles (#)
IMODE	SELECTOR	1	I/E Range Mode
IRANGE	QUANT	3.00000E-001	Max Current (mA)
AREA	QUANT	1.00000E+000	Sample Area (cm^2)
EQDELAY	QUANT	0.00000E+000	Equil. Time (s)
IRCOMP	SELECTOR	0	IRComp
PFCOR	QUANT	5.00000E+001	PF Corr. (ohm)
SAMPLINGMODE	SELECTOR	2	Sampling Mode
EOC	QUANT	0.7205974	Open Circuit (V)
ELECTRODETYPE	SELECTOR	0	Electrode Type
STRIPPING	TOGGLE	F	Used for Stripping
SEQUENCER	TOGGLE	TRUE	Run as Sequence
PSTATMODEL	IQUANT	64	Pstat Model
PSTATSECTION	LABEL	IFC1010-34090	Pstat Section
PSTATSERIALNO	LABEL	34090	Pstat Serial Number
CTRLMODE	IQUANT	1	Control Mode
ELECTROMETER	IQUANT	0	RE=0 or CS=1
IESTAB	IQUANT	2	I/E Stability
CASPEED	IQUANT	4	Control Amp Speed
CONVENTION	IQUANT	1	Current Convention
ICHRANGE	IQUANT	2	Ich Range
ICHRANGEMODE	TOGGLE	F	Ich Auto Range
ICHOFFSETENABLE	TOGGLE	F	Ich Offset Enable
ICHOFFSET	QUANT	0	Ich Offset (V)
ICHFILTER	IQUANT	3	Ich Filter
VCHRANGE	IQUANT	1	Vch Range
VCHRANGEMODE	TOGGLE	F	Vch Auto Range
VCHOFFSETENABLE	TOGGLE	F	Vch Offset Enable
VCHOFFSET	QUANT	0	Vch Offset (V)
VCHFILTER	IQUANT	3	Vch Filter
IERANGELOWERLIMIT	IQUANT	4	I/E Range Lower Limit
IERANGEMODE	TOGGLE	F	I/E AutoRange
IERANGE	IQUANT	9	I/E Range
ACHSELECT	IQUANT	0	Ach Select
ACHRANGE	IQUANT	2	Ach Range
ACHOFFSETENABLE	TOGGLE	F	Ach Offset Enable
ACHOFFSET	QUANT	0	Ach Offset (V)
ACHFILTER	IQUANT	1	Ach Filter
SENSECABLEID	IQUANT	13	Sense Cable ID
PWRCABLEID	IQUANT	13	Power Cable ID
DCCALDATE	LABEL	1/30/2024	DC Calibration Date
ACCALDATE	LABEL	1/8/2024	AC Calibration Date
FRAMEWORKVERSION	LABEL	7.10.3	Framework Version
INSTRUMENTVERSION	LABEL	4.91	Instrument Version
COMMVERSION	LABEL	3.10	Communications Version
CPUPLDVERSION	LABEL	2.22	CPU PLD Version
CTRLPLDVERSION	LABEL	0.00	CTRL PLD Version
PSTATPLDVERSION	LABEL	0.00	PSTAT PLD Version
CURVE1	TABLE
	Pt	T	Vf	Im	Vu	Sig	Ach	IERange	Over	Temp
	#	s	V vs. Ref.	A	V	V	V	#	bits	deg C
	0	0.01	1.00295E-001	-2.08274E-005	0.00000E+000	9.99950E-002	0.00000E+000	9	...........	1467.43
	2	0.03	1.02276E-001	-1.63656E-005	0.00000E+000	1.01995E-001	0.00000E+000	9	...........	1467.43
	4	0.05	1.04273E-001	-1.59811E-005	0.00000E+000	1.03995E-001	0.00000E+000	9	...........	1467.43
	6	0.07	1.06277E-001	-1.57155E-005	0.00000E+000	1.05994E-001	0.00000E+000	9	...........	1467.43
	8	0.09	1.08278E-001	-1.55108E-005	0.00000E+000	1.07994E-001	0.00000E+000	9	...........	1467.43
	10	0.11	1.10279E-001	-1.53291E-005	0.00000E+000	1.09994E-001	0.00000E+000	9	...........	1467.43
	12	0.13	1.12275E-001	-1.51736E-005	0.00000E+000	1.11994E-001	0.00000E+000	9	...........	1467.43
	14	0.15	1.14279E-001	-1.50063E-005	0.00000E+000	1.13994E-001	0.00000E+000	9	...........	1467.43
	16	0.17	1.16278E-001	-1.48771E-005	0.00000E+000	1.15993E-001	0.00000E+000	9	...........	1467.43
	18	0.19	1.18280E-001	-1.47323E-005	0.00000E+000	1.17993E-001	0.00000E+000	9	...........	1467.43
	20	0.21	1.20282E-001	-1.45885E-005	0.00000E+000	1.19993E-001	0.00000E+000	9	...........	1467.43
	22	0.23	1.22281E-001	-1.44522E-005	0.00000E+000	1.21993E-001	0.00000E+000	9	...........	1467.43
	24	0.25	1.24283E-001	-1.43225E-005	0.00000E+000	1.23993E-001	0.00000E+000	9	...........	1467.43
	26	0.27	1.26283E-001	-1.41805E-005	0.00000E+000	1.25992E-001	0.00000E+000	9	...........	1467.43
	28	0.29	1.28284E-001	-1.40569E-005	0.00000E+000	1.27992E-001	0.00000E+000	9	...........	1467.43
	30	0.31	1.30285E-001	-1.39371E-005	0.00000E+000	1.29992E-001	0.00000E+000	9	...........	1467.43
	32	0.33	1.32286E-001	-1.37954E-005	0.00000E+000	1.31992E-001	0.00000E+000	9	...........	1467.43
	34	0.35	1.34273E-001	-1.36859E-005	0.00000E+000	1.33979E-001	0.00000E+000	9	...........	1467.43
	36	0.37	1.36273E-001	-1.35555E-005	0.00000E+000	1.35979E-001	0.00000E+000	9	...........	1467.43
	38	0.39	1.38275E-001	-1.34333E-005	0.00000E+000	1.37979E-001	0.00000E+000	9	...........	1467.43
	40	0.41	1.40276E-001	-1.33112E-005	0.00000E+000	1.39978E-001	0.00000E+000	9	...........	1467.43
	42	0.43	1.42277E-001	-1.31852E-005	0.00000E+000	1.41978E-001	0.00000E+000	9	...........	1467.43
	44	0.45	1.44275E-001	-1.30741E-005	0.00000E+000	1.43978E-001	0.00000E+000	9	...........	1467.43
	46	0.47	1.46277E-001	-1.29405E-005	0.00000E+000	1.45978E-001	0.00000E+000	9	...........	1467.43
	48	0.49	1.48277E-001	-1.28154E-005	0.00000E+000	1.47978E-001	0.00000E+000	9	...........	1467.43
	50	0.51	1.50279E-001	-1.27006E-005	0.00000E+000	1.49977E-001	0.00000E+000	9	...........	1467.43
	52	0.53	1.52275E-001	-1.25850E-005	0.00000E+000	1.51977E-001	0.00000E+000	9	...........	1467.43
	54	0.55	1.54278E-001	-1.24495E-005	0.00000E+000	1.53977E-001	0.00000E+000	9	...........	1467.43
	56	0.57	1.56278E-001	-1.23466E-005	0.00000E+000	1.55977E-001	0.00000E+000	9	...........	1467.43
	58	0.59	1.58279E-001	-1.22130E-005	0.00000E+000	1.57977E-001	0.00000E+000	9	...........	1467.43
	60	0.61	1.60283E-001	-1.20925E-005	0.00000E+000	1.59976E-001	0.00000E+000	9	...........	1467.43
	62	0.63	1.62282E-001	-1.19845E-005	0.00000E+000	1.61976E-001	0.00000E+000	9	...........	1467.43
	64	0.65	1.64281E-001	-1.18576E-005	0.00000E+000	1.63976E-001	0.00000E+000	9	...........	1467.43
	66	0.67	1.66284E-001	-1.17400E-005	0.00000E+000	1.65976E-001	0.00000E+000	9	...........	1467.43
	68	0.69	1.68269E-001	-1.16627E-005	0.00000E+000	1.67963E-001	0.00000E+000	9	...........	1467.43
	70	0.71	1.70269E-001	-1.14997E-005	0.00000E+000	1.69963E-001	0.00000E+000	9	...........	1467.43
	72	0.73	1.72272E-001	-1.13679E-005	0.00000E+000	1.71963E-001	0.00000E+000	9	...........	1467.43
	74	0.75	1.74272E-001	-1.12483E-005	0.00000E+000	1.73962E-001	0.00000E+000	9	...........	1467.43
	76	0.77	1.76271E-001	-1.11128E-005	0.00000E+000	1.75962E-001	0.00000E+000	9	...........	1467.43
	78	0.79	1.78272E-001	-1.10032E-005	0.00000E+000	1.77962E-001	0.00000E+000	9	...........	1467.43
	80	0.81	1.80275E-001	-1.08697E-005	0.00000E+000	1.79962E-001	0.00000E+000	9	...........	1467.43
	82	0.83	1.82275E-001	-1.07449E-005	0.00000E+000	1.81962E-001	0.00000E+000	9	...........	1467.43
	84	0.85	1.84275E-001	-1.06087E-005	0.00000E+000	1.83961E-001	0.00000E+000	9	...........	1467.43
	86	0.87	1.86276E-001	-1.04787E-005	0.00000E+000	1.85961E-001	0.00000E+000	9	...........	1467.43
	88	0.89	1.88276E-001	-1.03503E-005	0.00000E+000	1.87961E-001	0.00000E+000	9	...........	1467.43
	90	0.91	1.90277E-001	-1.02029E-005	0.00000E+000	1.89961E-001	0.00000E+000	9	...........	1467.43
	92	0.93	1.92277E-001	-1.00736E-005	0.00000E+000	1.91961E-001	0.00000E+000	9	...........	1467.43
	94	0.95	1.94277E-001	-9.92811E-006	0.00000E+000	1.93960E-001	0.00000E+000	9	...........	1467.43
	96	0.97	1.96280E-001	-9.76641E-006	0.00000E+000	1.95960E-001	0.00000E+000	9	...........	1467.43
	98	0.99	1.98278E-001	-9.61664E-006	0.00000E+000	1.97960E-001	0.00000E+000	9	...........	1467.43
	100	1.01	2.00281E-001	-9.45662E-006	0.00000E+000	1.99960E-001	0.00000E+000	9	...........	1467.43
	102	1.03	1.98322E-001	-1.77330E-005	0.00000E+000	1.97960E-001	0.00000E+000	9	...........	1467.43
	104	1.05	1.96325E-001	-1.84114E-005	0.00000E+000	1.95960E-001	0.00000E+000	9	...........	1467.43
	106	1.07	1.94322E-001	-1.88203E-005	0.00000E+000	1.93960E-001	0.00000E+000	9	...........	1467.43
	108	1.09	1.92322E-001	-1.91305E-005	0.00000E+000	1.91961E-001	0.00000E+000	9	...........	1467.43
	110	1.11	1.90322E-001	-1.94006E-005	0.00000E+000	1.89961E-001	0.00000E+000	9	...........	1467.43
	112	1.13	1.88321E-001	-1.96119E-005	0.00000E+000	1.87961E-001	0.00000E+000	9	...........	1467.43
	114	1.15	1.86320E-001	-1.98019E-005	0.00000E+000	1.85961E-001	0.00000E+000	9	...........	1467.43
	116	1.17	1.84320E-001	-1.99837E-005	0.00000E+000	1.83961E-001	0.00000E+000	9	...........	1467.43
	118	1.19	1.82318E-001	-2.01437E-005	0.00000E+000	1.81962E-001	0.00000E+000	9	...........	1467.43
	120	1.21	1.80319E-001	-2.02896E-005	0.00000E+000	1.79962E-001	0.00000E+000	9	...........	1467.43
	122	1.23	1.78317E-001	-2.04401E-005	0.00000E+000	1.77962E-001	0.00000E+000	9	...........	1467.43
	124	1.25	1.76316E-001	-2.05683E-005	0.00000E+000	1.75962E-001	0.00000E+000	9	...........	1467.43
	126	1.27	1.74318E-001	-2.06860E-005	0.00000E+000	1.73962E-001	0.00000E+000	9	...........	1467.43
	128	1.29	1.72316E-001	-2.08104E-005	0.00000E+000	1.71963E-001	0.00000E+000	9	...........	1467.43
	130	1.31	1.70315E-001	-2.09303E-005	0.00000E+000	1.69963E-001	0.00000E+000	9	...........	1467.43
	132	1.33	1.68314E-001	-2.10438E-005	0.00000E+000	1.67963E-001	0.00000E+000	9	...........	1467.43
	134	1.35	1.66325E-001	-2.11518E-005	0.00000E+000	1.65976E-001	0.00000E+000	9	...........	1467.43
	136	1.37	1.64327E-001	-2.12557E-005	0.00000E+000	1.63976E-001	0.00000E+000	9	...........	1467.43
	138	1.39	1.62325E-001	-2.13590E-005	0.00000E+000	1.61976E-001	0.00000E+000	9	...........	1467.43
	140	1.41	1.60326E-001	-2.14753E-005	0.00000E+000	1.59976E-001	0.00000E+000	9	...........	1467.43
	142	1.43	1.58323E-001	-2.15766E-005	0.00000E+000	1.57977E-001	0.00000E+000	9	...........	1467.43
	144	1.45	1.56322E-001	-2.16945E-005	0.00000E+000	1.55977E-001	0.00000E+000	9	...........	1467.43
	146	1.47	1.54322E-001	-2.17907E-005	0.00000E+000	1.53977E-001	0.00000E+000	9	...........	1467.43
	148	1.49	1.52320E-001	-2.18975E-005	0.00000E+000	1.51977E-001	0.00000E+000	9	...........	1467.43
	150	1.51	1.50323E-001	-2.19939E-005	0.00000E+000	1.49977E-001	0.00000E+000	9	...........	1467.43
	152	1.53	1.48321E-001	-2.21010E-005	0.00000E+000	1.47978E-001	0.00000E+000	9	...........	1467.43
	154	1.55	1.46323E-001	-2.22236E-005	0.00000E+000	1.45978E-001	0.00000E+000	9	...........	1467.43
	156	1.57	1.44319E-001	-2.23294E-005	0.00000E+000	1.43978E-001	0.00000E+000	9	...........	1467.43
	158	1.59	1.42322E-001	-2.24141E-005	0.00000E+000	1.41978E-001	0.00000E+000	9	...........	1467.43
	160	1.61	1.40320E-001	-2.25296E-005	0.00000E+000	1.39978E-001	0.00000E+000	9	...........	1467.43
	162	1.63	1.38320E-001	-2.26315E-005	0.00000E+000	1.37979E-001	0.00000E+000	9	...........	1467.43
	164	1.65	1.36318E-001	-2.27415E-005	0.00000E+000	1.35979E-001	0.00000E+000	9	...........	1467.43
	166	1.67	1.34318E-001	-2.28618E-005	0.00000E+000	1.33979E-001	0.00000E+000	9	...........	1467.43
	168	1.69	1.32330E-001	-2.29193E-005	0.00000E+000	1.31992E-001	0.00000E+000	9	...........	1467.43
	170	1.71	1.30329E-001	-2.30794E-005	0.00000E+000	1.29992E-001	0.00000E+000	9	...........	1467.43
	172	1.73	1.28332E-001	-2.31975E-005	0.00000E+000	1.27992E-001	0.00000E+000	9	...........	1467.43
	174	1.75	1.26329E-001	-2.33140E-005	0.00000E+000	1.25992E-001	0.00000E+000	9	...........	1467.43
	176	1.77	1.24329E-001	-2.34193E-005	0.00000E+000	1.23993E-001	0.00000E+000	9	...........	1467.43
	178	1.79	1.22327E-001	-2.35366E-005	0.00000E+000	1.21993E-001	0.00000E+000	9	...........	1467.43
	180	1.81	1.20326E-001	-2.36684E-005	0.00000E+000	1.19993E-001	0.00000E+000	9	...........	1467.43
	182	1.83	1.18326E-001	-2.37929E-005	0.00000E+000	1.17993E-001	0.00000E+000	9	...........	1467.43
	184	1.85	1.16324E-001	-2.39026E-005	0.00000E+000	1.15993E-001	0.00000E+000	9	...........	1467.43
	186	1.87	1.14321E-001	-2.40424E-005	0.00000E+000	1.13994E-001	0.00000E+000	9	...........	1467.43
	188	1.89	1.12320E-001	-2.41760E-005	0.00000E+000	1.11994E-001	0.00000E+000	9	...........	1467.43
	190	1.91	1.10322E-001	-2.42941E-005	0.00000E+000	1.09994E-001	0.00000E+000	9	...........	1467.43
	192	1.93	1.08322E-001	-2.44456E-005	0.00000E+000	1.07994E-001	0.00000E+000	9	...........	1467.43
	194	1.95	1.06321E-001	-2.45821E-005	0.00000E+000	1.05994E-001	0.00000E+000	9	...........	1467.43
	196	1.97	1.04318E-001	-2.47230E-005	0.00000E+000	1.03995E-001	0.00000E+000	9	...........	1467.43
	198	1.99	1.02318E-001	-2.48722E-005	0.00000E+000	1.01995E-001	0.00000E+000	9	...........	1467.43
	200	2.01	1.00318E-001	-2.50314E-005	0.00000E+000	9.99950E-002	0.00000E+000	9	...........	1467.43
CURVE2	TABLE
	Pt	T	Vf	Im	Vu	Sig	Ach	IERange	Over	Temp
	#	s	V vs. Ref.	A	V	V	V	#	bits	deg C
	201	2.02	1.01275E-001	-1.73177E-005	0.00000E+000	1.00995E-001	0.00000E+000	9	...........	1467.43
	203	2.04	1.03275E-001	-1.62572E-005	0.00000E+000	1.02995E-001	0.00000E+000	9	...........	1467.43
	205	2.06	1.05272E-001	-1.59022E-005	0.00000E+000	1.04994E-001	0.00000E+000	9	...........	1467.43
	207	2.08	1.07274E-001	-1.56544E-005	0.00000E+000	1.06994E-001	0.00000E+000	9	...........	1467.43
	209	2.1	1.09277E-001	-1.54487E-005	0.00000E+000	1.08994E-001	0.00000E+000	9	...........	1467.43
	211	2.12	1.11273E-001	-1.52558E-005	0.00000E+000	1.10994E-001	0.00000E+000	9	...........	1467.43
	213	2.14	1.13277E-001	-1.50835E-005	0.00000E+000	1.12994E-001	0.00000E+000	9	...........	1467.43
	215	2.16	1.15279E-001	-1.49184E-005	0.00000E+000	1.14993E-001	0.00000E+000	9	...........	1467.43
	217	2.18	1.17277E-001	-1.47642E-005	0.00000E+000	1.16993E-001	0.00000E+000	9	...........	1467.43
	219	2.2	1.19281E-001	-1.46143E-005	0.00000E+000	1.18993E-001	0.00000E+000	9	...........	1467.43
	221	2.22	1.21282E-001	-1.44776E-005	0.00000E+000	1.20993E-001	0.00000E+000	9	...........	1467.43
	223	2.24	1.23282E-001	-1.43467E-005	0.00000E+000	1.22993E-001	0.00000E+000	9	...........	1467.43
	225	2.26	1.25280E-001	-1.41954E-005	0.00000E+000	1.24992E-001	0.00000E+000	9	...........	1467.43
	227	2.28	1.27283E-001	-1.40641E-005	0.00000E+000	1.26992E-001	0.00000E+000	9	...........	1467.43
	229	2.3	1.29286E-001	-1.39354E-005	0.00000E+000	1.28992E-001	0.00000E+000	9	...........	1467.43
	231	2.32	1.31283E-001	-1.38048E-005	0.00000E+000	1.30992E-001	0.00000E+000	9	...........	1467.43
	233	2.34	1.33273E-001	-1.37260E-005	0.00000E+000	1.32979E-001	0.00000E+000	9	...........	1467.43
	235	2.36	1.35274E-001	-1.35494E-005	0.00000E+000	1.34979E-001	0.00000E+000	9	...........	1467.43
	237	2.38	1.37273E-001	-1.34305E-005	0.00000E+000	1.36979E-001	0.00000E+000	9	...........	1467.43
	239	2.4	1.39273E-001	-1.32971E-005	0.00000E+000	1.38979E-001	0.00000E+000	9	...........	1467.43
	241	2.42	1.41277E-001	-1.31792E-005	0.00000E+000	1.40978E-001	0.00000E+000	9	...........	1467.43
	243	2.44	1.43273E-001	-1.30520E-005	0.00000E+000	1.42978E-001	0.00000E+000	9	...........	1467.43
	245	2.46	1.45276E-001	-1.29218E-005	0.00000E+000	1.44978E-001	0.00000E+000	9	...........	1467.43
	247	2.48	1.47279E-001	-1.27964E-005	0.00000E+000	1.46978E-001	0.00000E+000	9	...........	1467.43
	249	2.5	1.49278E-001	-1.26920E-005	0.00000E+000	1.48978E-001	0.00000E+000	9	...........	1467.43
	251	2.52	1.51275E-001	-1.25729E-005	0.00000E+000	1.50977E-001	0.00000E+000	9	...........	1467.43
	253	2.54	1.53275E-001	-1.24377E-005	0.00000E+000	1.52977E-001	0.00000E+000	9	...........	1467.43
	255	2.56	1.55276E-001	-1.23366E-005	0.00000E+000	1.54977E-001	0.00000E+000	9	...........	1467.43
	257	2.58	1.57276E-001	-1.22171E-005	0.00000E+000	1.56977E-001	0.00000E+000	9	...........	1467.43
	259	2.6	1.59280E-001	-1.20857E-005	0.00000E+000	1.58976E-001	0.00000E+000	9	...........	1467.43
	261	2.62	1.61278E-001	-1.19717E-005	0.00000E+000	1.60976E-001	0.00000E+000	9	...........	1467.43
	263	2.64	1.63280E-001	-1.18582E-005	0.00000E+000	1.62976E-001	0.00000E+000	9	...........	1467.43
	265	2.66	1.65279E-001	-1.17395E-005	0.00000E+000	1.64976E-001	0.00000E+000	9	...........	1467.43
	267	2.68	1.67281E-001	-1.16101E-005	0.00000E+000	1.66976E-001	0.00000E+000	9	...........	1467.43
	269	2.7	1.69269E-001	-1.15020E-005	0.00000E+000	1.68963E-001	0.00000E+000	9	...........	1467.43
	271	2.72	1.71270E-001	-1.13676E-005	0.00000E+000	1.70963E-001	0.00000E+000	9	...........	1467.43
	273	2.74	1.73270E-001	-1.12486E-005	0.00000E+000	1.72963E-001	0.00000E+000	9	...........	1467.43
	275	2.76	1.75270E-001	-1.11205E-005	0.00000E+000	1.74962E-001	0.00000E+000	9	...........	1467.43
	277	2.78	1.77271E-001	-1.09874E-005	0.00000E+000	1.76962E-001	0.00000E+000	9	...........	1467.43
	279	2.8	1.79276E-001	-1.08687E-005	0.00000E+000	1.78962E-001	0.00000E+000	9	...........	1467.43
	281	2.82	1.81274E-001	-1.07437E-005	0.00000E+000	1.80962E-001	0.00000E+000	9	...........	1467.43
	283	2.84	1.83277E-001	-1.06076E-005	0.00000E+000	1.82962E-001	0.00000E+000	9	...........	1467.43
	285	2.86	1.85275E-001	-1.04864E-005	0.00000E+000	1.84961E-001	0.00000E+000	9	...........	1467.43
	287	2.88	1.87277E-001	-1.03511E-005	0.00000E+000	1.86961E-001	0.00000E+000	9	...........	1467.43
	289	2.9	1.89273E-001	-1.02150E-005	0.00000E+000	1.88961E-001	0.00000E+000	9	...........	1467.43
	291	2.92	1.91277E-001	-1.00659E-005	0.00000E+000	1.90961E-001	0.00000E+000	9	...........	1467.43
	293	2.94	1.93278E-001	-9.90759E-006	0.00000E+000	1.92961E-001	0.00000E+000	9	...........	1467.43
	295	2.96	1.95278E-001	-9.76318E-006	0.00000E+000	1.94960E-001	0.00000E+000	9	...........	1467.43
	297	2.98	1.97280E-001	-9.63002E-006	0.00000E+000	1.96960E-001	0.00000E+000	9	...........	1467.43
	299	3	1.99281E-001	-9.46319E-006	0.00000E+000	1.98960E-001	0.00000E+000	9	...........	1467.43
	301	3.02	1.99326E-001	-1.67776E-005	0.00000E+000	1.98960E-001	0.00000E+000	9	...........	1467.43
	303	3.04	1.97323E-001	-1.80472E-005	0.00000E+000	1.96960E-001	0.00000E+000	9	...........	1467.43
[...]
	431	4.32	1.31285E-001	-1.38961E-005	0.00000E+000	1.30992E-001	0.00000E+000	9	...........	1467.43
	433	4.34	1.33275E-001	-1.38145E-005	0.00000E+000	1.32979E-001	0.00000E+000	9	...........	1467.43
	435	4.36	1.35272E-001	-1.36366E-005	0.00000E+000	1.34979E-001	0.00000E+000	9	...........	1467.43
	437	4.38	1.37274E-001	-1.35213E-005	0.00000E+000	1.36979E-001	0.00000E+000	9	...........	1467.43
	439	4.4	1.39275E-001	-1.33882E-005	0.00000E+000	1.38979E-001	0.00000E+000	9	...........	1467.43
	441	4.42	1.41278E-001	-1.32736E-005	0.00000E+000	1.40978E-001	0.00000E+000	9	...........	1467.43
	443	4.44	1.43275E-001	-1.31481E-005	0.00000E+000	1.42978E-001	0.00000E+000	9	...........	1467.43
	445	4.46	1.45278E-001	-1.30123E-005	0.00000E+000	1.44978E-001	0.00000E+000	9	...........	1467.43
	447	4.48	1.47277E-001	-1.28959E-005	0.00000E+000	1.46978E-001	0.00000E+000	9	...........	1467.43
	449	4.5	1.49277E-001	-1.27759E-005	0.00000E+000	1.48978E-001	0.00000E+000	9	...........	1467.43
	451	4.52	1.51274E-001	-1.26701E-005	0.00000E+000	1.50977E-001	0.00000E+000	9	...........	1467.43
	453	4.54	1.53272E-001	-1.25443E-005	0.00000E+000	1.52977E-001	0.00000E+000	9	...........	1467.43
	455	4.56	1.55275E-001	-1.24213E-005	0.00000E+000	1.54977E-001	0.00000E+000	9	...........	1467.43
	457	4.58	1.57273E-001	-1.22973E-005	0.00000E+000	1.56977E-001	0.00000E+000	9	...........	1467.43
	459	4.6	1.59277E-001	-1.21766E-005	0.00000E+000	1.58976E-001	0.00000E+000	9	...........	1467.43
	461	4.62	1.61278E-001	-1.20614E-005	0.00000E+000	1.60976E-001	0.00000E+000	9	...........	1467.43
	463	4.64	1.63280E-001	-1.19343E-005	0.00000E+000	1.62976E-001	0.00000E+000	9	...........	1467.43
	465	4.66	1.65278E-001	-1.18282E-005	0.00000E+000	1.64976E-001	0.00000E+000	9	...........	1467.43
	467	4.68	1.67279E-001	-1.16921E-005	0.00000E+000	1.66976E-001	0.00000E+000	9	...........	1467.43
	469	4.7	1.69268E-001	-1.15835E-005	0.00000E+000	1.68963E-001	0.00000E+000	9	...........	1467.43
	471	4.72	1.71270E-001	-1.14459E-005	0.00000E+000	1.70963E-001	0.00000E+000	9	...........	1467.43
	473	4.74	1.73271E-001	-1.13216E-005	0.00000E+000	1.72963E-001	0.00000E+000	9	...........	1467.43
	475	4.76	1.75271E-001	-1.12140E-005	0.00000E+000	1.74962E-001	0.00000E+000	9	...........	1467.43
	477	4.78	1.77273E-001	-1.10782E-005	0.00000E+000	1.76962E-001	0.00000E+000	9	...........	1467.43
	479	4.8	1.79277E-001	-1.09473E-005	0.00000E+000	1.78962E-001	0.00000E+000	9	...........	1467.43
	481	4.82	1.81276E-001	-1.08210E-005	0.00000E+000	1.80962E-001	0.00000E+000	9	...........	1467.43
	483	4.84	1.83278E-001	-1.06967E-005	0.00000E+000	1.82962E-001	0.00000E+000	9	...........	1467.43
	485	4.86	1.85277E-001	-1.05561E-005	0.00000E+000	1.84961E-001	0.00000E+000	9	...........	1467.43
	487	4.88	1.87277E-001	-1.04203E-005	0.00000E+000	1.86961E-001	0.00000E+000	9	...........	1467.43
	489	4.9	1.89276E-001	-1.02839E-005	0.00000E+000	1.88961E-001	0.00000E+000	9	...........	1467.43
	491	4.92	1.91280E-001	-1.01423E-005	0.00000E+000	1.90961E-001	0.00000E+000	9	...........	1467.43
	493	4.94	1.93279E-001	-9.99571E-006	0.00000E+000	1.92961E-001	0.00000E+000	9	...........	1467.43
	495	4.96	1.95280E-001	-9.85180E-006	0.00000E+000	1.94960E-001	0.00000E+000	9	...........	1467.43
	497	4.98	1.97281E-001	-9.70008E-006	0.00000E+000	1.96960E-001	0.00000E+000	9	...........	1467.43
	499	5	1.99284E-001	-9.53710E-006	0.00000E+000	1.98960E-001	0.00000E+000	9	...........	1467.43
	501	5.02	1.99329E-001	-1.68454E-005	0.00000E+000	1.98960E-001	0.00000E+000	9	...........	1467.43
	503	5.04	1.97328E-001	-1.81082E-005	0.00000E+000	1.96960E-001	0.00000E+000	9	...........	1467.43
	505	5.06	1.95324E-001	-1.86148E-005	0.00000E+000	1.94960E-001	0.00000E+000	9	...........	1467.43
	507	5.08	1.93325E-001	-1.89578E-005	0.00000E+000	1.92961E-001	0.00000E+000	9	...........	1467.43
	509	5.1	1.91323E-001	-1.92381E-005	0.00000E+000	1.90961E-001	0.00000E+000	9	...........	1467.43
	511	5.12	1.89323E-001	-1.94712E-005	0.00000E+000	1.88961E-001	0.00000E+000	9	...........	1467.43
	513	5.14	1.87323E-001	-1.96671E-005	0.00000E+000	1.86961E-001	0.00000E+000	9	...........	1467.43
	515	5.16	1.85323E-001	-1.98540E-005	0.00000E+000	1.84961E-001	0.00000E+000	9	...........	1467.43
	517	5.18	1.83324E-001	-2.00193E-005	0.00000E+000	1.82962E-001	0.00000E+000	9	...........	1467.43
	519	5.2	1.81321E-001	-2.01633E-005	0.00000E+000	1.80962E-001	0.00000E+000	9	...........	1467.43
	521	5.22	1.79322E-001	-2.03164E-005	0.00000E+000	1.78962E-001	0.00000E+000	9	...........	1467.43
	523	5.24	1.77318E-001	-2.04548E-005	0.00000E+000	1.76962E-001	0.00000E+000	9	...........	1467.43
	525	5.26	1.75316E-001	-2.05823E-005	0.00000E+000	1.74962E-001	0.00000E+000	9	...........	1467.43
	527	5.28	1.73315E-001	-2.07048E-005	0.00000E+000	1.72963E-001	0.00000E+000	9	...........	1467.43
	529	5.3	1.71315E-001	-2.08288E-005	0.00000E+000	1.70963E-001	0.00000E+000	9	...........	1467.43
	531	5.32	1.69314E-001	-2.09289E-005	0.00000E+000	1.68963E-001	0.00000E+000	9	...........	1467.43
	533	5.34	1.67327E-001	-2.10012E-005	0.00000E+000	1.66976E-001	0.00000E+000	9	...........	1467.43
	535	5.36	1.65326E-001	-2.11541E-005	0.00000E+000	1.64976E-001	0.00000E+000	9	...........	1467.43
	537	5.38	1.63325E-001	-2.12721E-005	0.00000E+000	1.62976E-001	0.00000E+000	9	...........	1467.43
	539	5.4	1.61324E-001	-2.13699E-005	0.00000E+000	1.60976E-001	0.00000E+000	9	...........	1467.43
	541	5.42	1.59324E-001	-2.14698E-005	0.00000E+000	1.58976E-001	0.00000E+000	9	...........	1467.43
	543	5.44	1.57321E-001	-2.15830E-005	0.00000E+000	1.56977E-001	0.00000E+000	9	...........	1467.43
	545	5.46	1.55323E-001	-2.16773E-005	0.00000E+000	1.54977E-001	0.00000E+000	9	...........	1467.43
	547	5.48	1.53321E-001	-2.17934E-005	0.00000E+000	1.52977E-001	0.00000E+000	9	...........	1467.43
	549	5.5	1.51323E-001	-2.18944E-005	0.00000E+000	1.50977E-001	0.00000E+000	9	...........	1467.43
	551	5.52	1.49325E-001	-2.19920E-005	0.00000E+000	1.48978E-001	0.00000E+000	9	...........	1467.43
	553	5.54	1.47324E-001	-2.20989E-005	0.00000E+000	1.46978E-001	0.00000E+000	9	...........	1467.43
	555	5.56	1.45325E-001	-2.21843E-005	0.00000E+000	1.44978E-001	0.00000E+000	9	...........	1467.43
	557	5.58	1.43321E-001	-2.23078E-005	0.00000E+000	1.42978E-001	0.00000E+000	9	...........	1467.43
	559	5.6	1.41324E-001	-2.24157E-005	0.00000E+000	1.40978E-001	0.00000E+000	9	...........	1467.43
	561	5.62	1.39322E-001	-2.25139E-005	0.00000E+000	1.38979E-001	0.00000E+000	9	...........	1467.43
	563	5.64	1.37320E-001	-2.26162E-005	0.00000E+000	1.36979E-001	0.00000E+000	9	...........	1467.43
	565	5.66	1.35320E-001	-2.27255E-005	0.00000E+000	1.34979E-001	0.00000E+000	9	...........	1467.43
	567	5.68	1.33320E-001	-2.28477E-005	0.00000E+000	1.32979E-001	0.00000E+000	9	...........	1467.43
	569	5.7	1.31331E-001	-2.29516E-005	0.00000E+000	1.30992E-001	0.00000E+000	9	...........	1467.43
	571	5.72	1.29332E-001	-2.30578E-005	0.00000E+000	1.28992E-001	0.00000E+000	9	...........	1467.43
	573	5.74	1.27331E-001	-2.31692E-005	0.00000E+000	1.26992E-001	0.00000E+000	9	...........	1467.43
	575	5.76	1.25328E-001	-2.32868E-005	0.00000E+000	1.24992E-001	0.00000E+000	9	...........	1467.43
	577	5.78	1.23328E-001	-2.33959E-005	0.00000E+000	1.22993E-001	0.00000E+000	9	...........	1467.43
	579	5.8	1.21328E-001	-2.35176E-005	0.00000E+000	1.20993E-001	0.00000E+000	9	...........	1467.43
	581	5.82	1.19326E-001	-2.36318E-005	0.00000E+000	1.18993E-001	0.00000E+000	9	...........	1467.43
	583	5.84	1.17322E-001	-2.37734E-005	0.00000E+000	1.16993E-001	0.00000E+000	9	...........	1467.43
	585	5.86	1.15324E-001	-2.38989E-005	0.00000E+000	1.14993E-001	0.00000E+000	9	...........	1467.43
	587	5.88	1.13323E-001	-2.40351E-005	0.00000E+000	1.12994E-001	0.00000E+000	9	...........	1467.43
	589	5.9	1.11318E-001	-2.41751E-005	0.00000E+000	1.10994E-001	0.00000E+000	9	...........	1467.43
	591	5.92	1.09322E-001	-2.43165E-005	0.00000E+000	1.08994E-001	0.00000E+000	9	...........	1467.43
	593	5.94	1.07315E-001	-2.44597E-005	0.00000E+000	1.06994E-001	0.00000E+000	9	...........	1467.43
	595	5.96	1.05317E-001	-2.46113E-005	0.00000E+000	1.04994E-001	0.00000E+000	9	...........	1467.43
	597	5.98	1.03318E-001	-2.47559E-005	0.00000E+000	1.02995E-001	0.00000E+000	9	...........	1467.43
	599	6	1.01316E-001	-2.49081E-005	0.00000E+000	1.00995E-001	0.00000E+000	9	...........	1467.43
	600	6.01	1.00318E-001	-2.48149E-005	0.00000E+000	9.99950E-002	0.00000E+000	9	...........	1467.43
CURVE4	TABLE
	Pt	T	Vf	Im	Vu	Sig	Ach	IERange	Over	Temp
	#	s	V vs. Ref.	A	V	V	V	#	bits	deg C
	601	6.02	1.00294E-001	-2.12591E-005	0.00000E+000	9.99950E-002	0.00000E+000	9	...........	1467.43