File: input/CV_ECSA_#2_#1.DTA
EXPLAIN
TAG	CV
TITLE	LABEL	ECSA	Test Identifier
DATE	LABEL	17.7.2024	Date
TIME	LABEL	13:18:24	Time
NOTES	NOTES	1	Notes...

PSTAT	PSTAT	IFC1010-34090	Potentiostat
VINIT	POTEN	1.00000E-001	F	A Potential (V)
VLIMIT1	POTEN	2.00000E-001	F	A Potential (V)
VLIMIT2	POTEN	1.00000E-001	F	A Potential (V)
VFINAL	POTEN	1.00000E-001	F	A Potential (V)
SCANRATE	QUANT	1.00000E+001	A Real Number
STEPSIZE	QUANT	1.00000E+000	Step Size (mV)
CYCLES	IQUANT	3	Cycles (#)
IMODE	SELECTOR	1	I/E Range Mode
IRANGE	QUANT	3.00000E-001	Max Current (mA)
AREA	QUANT	1.00000E+000	Sample Area (cm^2)
EQDELAY	QUANT	0.00000E+000	Equil. Time (s)
IRCOMP	SELECTOR	0	IRComp
PFCOR	QUANT	5.00000E+001	PF Corr. (ohm)
SAMPLINGMODE	SELECTOR	2	Sampling Mode
EOC	QUANT	0.7205974	Open Circuit (V)
ELECTRODETYPE	SELECTOR	0	Electrode Type
STRIPPING	TOGGLE	F	Used for Stripping
SEQUENCER	TOGGLE	TRUE	Run as Sequence
PSTATMODEL	IQUANT	64	Pstat Model
PSTATSECTION	LABEL	IFC1010-34090	Pstat Section
PSTATSERIALNO	LABEL	34090	Pstat Serial Number
CTRLMODE	IQUANT	1	Control Mode
ELECTROMETER	IQUANT	0	RE=0 or CS=1
IESTAB	IQUANT	2	I/E Stability
CASPEED	IQUANT	4	Control Amp Speed
CONVENTION	IQUANT	1	Current Convention
ICHRANGE	IQUANT	2	Ich Range
ICHRANGEMODE	TOGGLE	F	Ich Auto Range
ICHOFFSETENABLE	TOGGLE	F	Ich Offset Enable
ICHOFFSET	QUANT	0	Ich Offset (V)
ICHFILTER	IQUANT	3	Ich Filter
VCHRANGE	IQUANT	1	Vch Range
VCHRANGEMODE	TOGGLE	F	Vch Auto Range
VCHOFFSETENABLE	TOGGLE	F	Vch Offset Enable
VCHOFFSET	QUANT	0	Vch Offset (V)
VCHFILTER	IQUANT	3	Vch Filter
IERANGELOWERLIMIT	IQUANT	4	I/E Range Lower Limit
IERANGEMODE	TOGGLE	F	I/E AutoRange
IERANGE	IQUANT	9	I/E Range
ACHSELECT	IQUANT	0	Ach Select
ACHRANGE	IQUANT	2	Ach Range
ACHOFFSETENABLE	TOGGLE	F	Ach Offset Enable
ACHOFFSET	QUANT	0	Ach Offset (V)
ACHFILTER	IQUANT	1	Ach Filter
SENSECABLEID	IQUANT	13	Sense Cable ID
PWRCABLEID	IQUANT	13	Power Cable ID
DCCALDATE	LABEL	1/30/2024	DC Calibration Date
ACCALDATE	LABEL	1/8/2024	AC Calibration Date
FRAMEWORKVERSION	LABEL	7.10.3	Framework Version
INSTRUMENTVERSION	LABEL	4.91	Instrument Version
COMMVERSION	LABEL	3.10	Communications Version
CPUPLDVERSION	LABEL	2.22	CPU PLD Version
CTRLPLDVERSION	LABEL	0.00	CTRL PLD Version
PSTATPLDVERSION	LABEL	0.00	PSTAT PLD Version
CURVE1	TABLE
	Pt	T	Vf	Im	Vu	Sig	Ach	IERange	Over	Temp
	#	s	V vs. Ref.	A	V	V	V	#	bits	deg C
	0	0.1	1.00293E-001	-1.84283E-005	0.00000E+000	9.99950E-002	0.00000E+000	9	...........	1467.79
	2	0.3	1.02290E-001	-1.76986E-005	0.00000E+000	1.01995E-001	0.00000E+000	9	...........	1467.79
	4	0.5	1.04292E-001	-1.75981E-005	0.00000E+000	1.03995E-001	0.00000E+000	9	...........	1467.79
	6	0.7	1.06292E-001	-1.75174E-005	0.00000E+000	1.05994E-001	0.00000E+000	9	...........	1468.06
	8	0.9	1.08294E-001	-1.74435E-005	0.00000E+000	1.07994E-001	0.00000E+000	9	...........	1468.06
	10	1.1	1.10295E-001	-1.73766E-005	0.00000E+000	1.09994E-001	0.00000E+000	9	...........	1468.06
	12	1.3	1.12294E-001	-1.73084E-005	0.00000E+000	1.11994E-001	0.00000E+000	9	...........	1468.06
	14	1.5	1.14308E-001	-1.72425E-005	0.00000E+000	1.14006E-001	0.00000E+000	9	...........	1468.06
	16	1.7	1.16306E-001	-1.71769E-005	0.00000E+000	1.16006E-001	0.00000E+000	9	...........	1467.43
	18	1.9	1.18308E-001	-1.71181E-005	0.00000E+000	1.18006E-001	0.00000E+000	9	...........	1467.43
	20	2.1	1.20311E-001	-1.70538E-005	0.00000E+000	1.20005E-001	0.00000E+000	9	...........	1467.43
	22	2.3	1.22310E-001	-1.69911E-005	0.00000E+000	1.22005E-001	0.00000E+000	9	...........	1467.43
	24	2.5	1.24312E-001	-1.69317E-005	0.00000E+000	1.24005E-001	0.00000E+000	9	...........	1467.43
	26	2.7	1.26314E-001	-1.68700E-005	0.00000E+000	1.26005E-001	0.00000E+000	9	...........	1467.43
	28	2.9	1.28316E-001	-1.68104E-005	0.00000E+000	1.28005E-001	0.00000E+000	9	...........	1467.43
	30	3.1	1.30315E-001	-1.67546E-005	0.00000E+000	1.30004E-001	0.00000E+000	9	...........	1467.43
	32	3.3	1.32316E-001	-1.66945E-005	0.00000E+000	1.32004E-001	0.00000E+000	9	...........	1467.43
	34	3.5	1.34315E-001	-1.66382E-005	0.00000E+000	1.34004E-001	0.00000E+000	9	...........	1467.43
	36	3.7	1.36314E-001	-1.65816E-005	0.00000E+000	1.36004E-001	0.00000E+000	9	...........	1467.43
	38	3.9	1.38317E-001	-1.65211E-005	0.00000E+000	1.38004E-001	0.00000E+000	9	...........	1467.43
	40	4.1	1.40317E-001	-1.64685E-005	0.00000E+000	1.40003E-001	0.00000E+000	9	...........	1467.43
	42	4.3	1.42316E-001	-1.64184E-005	0.00000E+000	1.42003E-001	0.00000E+000	9	...........	1467.43
	44	4.5	1.44316E-001	-1.63624E-005	0.00000E+000	1.44003E-001	0.00000E+000	9	...........	1467.43
	46	4.7	1.46319E-001	-1.63130E-005	0.00000E+000	1.46003E-001	0.00000E+000	9	...........	1467.88
	48	4.9	1.48318E-001	-1.62621E-005	0.00000E+000	1.48003E-001	0.00000E+000	9	...........	1467.88
	50	5.1	1.50317E-001	-1.62150E-005	0.00000E+000	1.50002E-001	0.00000E+000	9	...........	1467.88
	52	5.3	1.52316E-001	-1.61674E-005	0.00000E+000	1.52002E-001	0.00000E+000	9	...........	1467.88
	54	5.5	1.54318E-001	-1.61241E-005	0.00000E+000	1.54002E-001	0.00000E+000	9	...........	1467.88
	56	5.7	1.56319E-001	-1.60734E-005	0.00000E+000	1.56002E-001	0.00000E+000	9	...........	1467.79
	58	5.9	1.58319E-001	-1.60264E-005	0.00000E+000	1.58002E-001	0.00000E+000	9	...........	1467.79
	60	6.1	1.60320E-001	-1.59812E-005	0.00000E+000	1.60001E-001	0.00000E+000	9	...........	1467.79
	62	6.3	1.62321E-001	-1.59387E-005	0.00000E+000	1.62001E-001	0.00000E+000	9	...........	1467.79
	64	6.5	1.64321E-001	-1.58995E-005	0.00000E+000	1.64001E-001	0.00000E+000	9	...........	1467.79
	66	6.7	1.66323E-001	-1.58610E-005	0.00000E+000	1.66001E-001	0.00000E+000	9	...........	1467.52
	68	6.9	1.68322E-001	-1.58226E-005	0.00000E+000	1.68001E-001	0.00000E+000	9	...........	1467.52
	70	7.1	1.70326E-001	-1.57793E-005	0.00000E+000	1.70000E-001	0.00000E+000	9	...........	1467.52
	72	7.3	1.72325E-001	-1.57423E-005	0.00000E+000	1.72000E-001	0.00000E+000	9	...........	1467.52
	74	7.5	1.74325E-001	-1.57035E-005	0.00000E+000	1.74000E-001	0.00000E+000	9	...........	1467.52
	76	7.7	1.76325E-001	-1.56686E-005	0.00000E+000	1.76000E-001	0.00000E+000	9	...........	1467.88
	78	7.9	1.78328E-001	-1.56333E-005	0.00000E+000	1.78000E-001	0.00000E+000	9	...........	1467.88
	80	8.1	1.80329E-001	-1.55938E-005	0.00000E+000	1.79999E-001	0.00000E+000	9	...........	1467.88
	82	8.3	1.82330E-001	-1.55605E-005	0.00000E+000	1.81999E-001	0.00000E+000	9	...........	1467.88
	84	8.5	1.84329E-001	-1.55211E-005	0.00000E+000	1.83999E-001	0.00000E+000	9	...........	1467.88
	86	8.7	1.86332E-001	-1.54889E-005	0.00000E+000	1.85999E-001	0.00000E+000	9	...........	1467.52
	88	8.9	1.88331E-001	-1.54533E-005	0.00000E+000	1.87999E-001	0.00000E+000	9	...........	1467.52
	90	9.1	1.90331E-001	-1.54201E-005	0.00000E+000	1.89998E-001	0.00000E+000	9	...........	1467.52
	92	9.3	1.92332E-001	-1.53908E-005	0.00000E+000	1.91998E-001	0.00000E+000	9	...........	1467.52
	94	9.5	1.94331E-001	-1.53564E-005	0.00000E+000	1.93998E-001	0.00000E+000	9	...........	1467.52
	96	9.7	1.96333E-001	-1.53222E-005	0.00000E+000	1.95998E-001	0.00000E+000	9	...........	1467.97
	98	9.9	1.98334E-001	-1.52907E-005	0.00000E+000	1.97998E-001	0.00000E+000	9	...........	1467.97
	100	10.1	2.00336E-001	-1.52639E-005	0.00000E+000	1.99997E-001	0.00000E+000	9	...........	1467.97
	102	10.3	1.98338E-001	-1.65930E-005	0.00000E+000	1.97998E-001	0.00000E+000	9	...........	1467.97
	104	10.5	1.96338E-001	-1.68681E-005	0.00000E+000	1.95998E-001	0.00000E+000	9	...........	1467.97
	106	10.7	1.94335E-001	-1.70775E-005	0.00000E+000	1.93998E-001	0.00000E+000	9	...........	1467.52
	108	10.9	1.92338E-001	-1.72528E-005	0.00000E+000	1.91998E-001	0.00000E+000	9	...........	1467.52
	110	11.1	1.90336E-001	-1.74039E-005	0.00000E+000	1.89998E-001	0.00000E+000	9	...........	1467.52
	112	11.3	1.88336E-001	-1.75422E-005	0.00000E+000	1.87999E-001	0.00000E+000	9	...........	1467.52
	114	11.5	1.86336E-001	-1.76650E-005	0.00000E+000	1.85999E-001	0.00000E+000	9	...........	1467.52
	116	11.7	1.84334E-001	-1.77759E-005	0.00000E+000	1.83999E-001	0.00000E+000	9	...........	1467.97
	118	11.9	1.82335E-001	-1.78801E-005	0.00000E+000	1.81999E-001	0.00000E+000	9	...........	1467.97
	120	12.1	1.80335E-001	-1.79767E-005	0.00000E+000	1.79999E-001	0.00000E+000	9	...........	1467.97
	122	12.3	1.78332E-001	-1.80684E-005	0.00000E+000	1.78000E-001	0.00000E+000	9	...........	1467.97
	124	12.5	1.76331E-001	-1.81571E-005	0.00000E+000	1.76000E-001	0.00000E+000	9	...........	1467.97
	126	12.7	1.74333E-001	-1.82361E-005	0.00000E+000	1.74000E-001	0.00000E+000	9	...........	1467.52
	128	12.9	1.72329E-001	-1.83166E-005	0.00000E+000	1.72000E-001	0.00000E+000	9	...........	1467.52
	130	13.1	1.70332E-001	-1.83937E-005	0.00000E+000	1.70000E-001	0.00000E+000	9	...........	1467.52
	132	13.3	1.68327E-001	-1.84665E-005	0.00000E+000	1.68001E-001	0.00000E+000	9	...........	1467.52
	134	13.5	1.66328E-001	-1.85373E-005	0.00000E+000	1.66001E-001	0.00000E+000	9	...........	1467.52
	136	13.7	1.64325E-001	-1.86080E-005	0.00000E+000	1.64001E-001	0.00000E+000	9	...........	1467.97
	138	13.9	1.62326E-001	-1.86724E-005	0.00000E+000	1.62001E-001	0.00000E+000	9	...........	1467.97
	140	14.1	1.60326E-001	-1.87366E-005	0.00000E+000	1.60001E-001	0.00000E+000	9	...........	1467.97
	142	14.3	1.58322E-001	-1.88024E-005	0.00000E+000	1.58002E-001	0.00000E+000	9	...........	1467.97
	144	14.5	1.56324E-001	-1.88661E-005	0.00000E+000	1.56002E-001	0.00000E+000	9	...........	1467.97
	146	14.7	1.54323E-001	-1.89246E-005	0.00000E+000	1.54002E-001	0.00000E+000	9	...........	1467.52
	148	14.9	1.52318E-001	-1.89876E-005	0.00000E+000	1.52002E-001	0.00000E+000	9	...........	1467.52
	150	15.1	1.50320E-001	-1.90473E-005	0.00000E+000	1.50002E-001	0.00000E+000	9	...........	1467.52
	152	15.3	1.48322E-001	-1.91064E-005	0.00000E+000	1.48003E-001	0.00000E+000	9	...........	1467.52
	154	15.5	1.46322E-001	-1.91606E-005	0.00000E+000	1.46003E-001	0.00000E+000	9	...........	1467.52
	156	15.7	1.44321E-001	-1.92153E-005	0.00000E+000	1.44003E-001	0.00000E+000	9	...........	1467.52
	158	15.9	1.42323E-001	-1.92705E-005	0.00000E+000	1.42003E-001	0.00000E+000	9	...........	1467.52
	160	16.1	1.40321E-001	-1.93243E-005	0.00000E+000	1.40003E-001	0.00000E+000	9	...........	1467.52
	162	16.3	1.38323E-001	-1.93799E-005	0.00000E+000	1.38004E-001	0.00000E+000	9	...........	1467.52
	164	16.5	1.36321E-001	-1.94338E-005	0.00000E+000	1.36004E-001	0.00000E+000	9	...........	1467.52
	166	16.7	1.34319E-001	-1.94856E-005	0.00000E+000	1.34004E-001	0.00000E+000	9	...........	1467.52
	168	16.9	1.32320E-001	-1.95410E-005	0.00000E+000	1.32004E-001	0.00000E+000	9	...........	1467.52
	170	17.1	1.30318E-001	-1.95923E-005	0.00000E+000	1.30004E-001	0.00000E+000	9	...........	1467.52
	172	17.3	1.28319E-001	-1.96377E-005	0.00000E+000	1.28005E-001	0.00000E+000	9	...........	1467.52
	174	17.5	1.26318E-001	-1.96926E-005	0.00000E+000	1.26005E-001	0.00000E+000	9	...........	1467.52
	176	17.7	1.24317E-001	-1.97467E-005	0.00000E+000	1.24005E-001	0.00000E+000	9	...........	1467.52
	178	17.9	1.22316E-001	-1.97956E-005	0.00000E+000	1.22005E-001	0.00000E+000	9	...........	1467.52
	180	18.1	1.20315E-001	-1.98442E-005	0.00000E+000	1.20005E-001	0.00000E+000	9	...........	1467.52
	182	18.3	1.18314E-001	-1.98936E-005	0.00000E+000	1.18006E-001	0.00000E+000	9	...........	1467.52
	184	18.5	1.16312E-001	-1.99486E-005	0.00000E+000	1.16006E-001	0.00000E+000	9	...........	1467.52
	186	18.7	1.14312E-001	-1.99972E-005	0.00000E+000	1.14006E-001	0.00000E+000	9	...........	1467.52
	188	18.9	1.12296E-001	-2.00505E-005	0.00000E+000	1.11994E-001	0.00000E+000	9	...........	1467.52
	190	19.1	1.10296E-001	-2.00979E-005	0.00000E+000	1.09994E-001	0.00000E+000	9	...........	1467.52
	192	19.3	1.08297E-001	-2.01482E-005	0.00000E+000	1.07994E-001	0.00000E+000	9	...........	1467.52
	194	19.5	1.06297E-001	-2.01975E-005	0.00000E+000	1.05994E-001	0.00000E+000	9	...........	1467.52
	196	19.7	1.04294E-001	-2.02500E-005	0.00000E+000	1.03995E-001	0.00000E+000	9	...........	1467.43
	198	19.9	1.02295E-001	-2.03010E-005	0.00000E+000	1.01995E-001	0.00000E+000	9	...........	1467.43
	200	20.1	1.00295E-001	-2.03489E-005	0.00000E+000	9.99950E-002	0.00000E+000	9	...........	1467.43
CURVE2	TABLE
	Pt	T	Vf	Im	Vu	Sig	Ach	IERange	Over	Temp
	#	s	V vs. Ref.	A	V	V	V	#	bits	deg C
	201	20.2	1.01290E-001	-1.92183E-005	0.00000E+000	1.00995E-001	0.00000E+000	9	...........	1467.43
	203	20.4	1.03291E-001	-1.89798E-005	0.00000E+000	1.02995E-001	0.00000E+000	9	...........	1467.43
	205	20.6	1.05289E-001	-1.88027E-005	0.00000E+000	1.04994E-001	0.00000E+000	9	...........	1467.43
	207	20.8	1.07291E-001	-1.86484E-005	0.00000E+000	1.06994E-001	0.00000E+000	9	...........	1467.43
	209	21	1.09293E-001	-1.85058E-005	0.00000E+000	1.08994E-001	0.00000E+000	9	...........	1467.43
	211	21.2	1.11291E-001	-1.83798E-005	0.00000E+000	1.10994E-001	0.00000E+000	9	...........	1467.43
	213	21.4	1.13307E-001	-1.82545E-005	0.00000E+000	1.13006E-001	0.00000E+000	9	...........	1467.43
	215	21.6	1.15307E-001	-1.81458E-005	0.00000E+000	1.15006E-001	0.00000E+000	9	...........	1467.43
	217	21.8	1.17306E-001	-1.80434E-005	0.00000E+000	1.17006E-001	0.00000E+000	9	...........	1467.43
	219	22	1.19310E-001	-1.79472E-005	0.00000E+000	1.19006E-001	0.00000E+000	9	...........	1467.43
	221	22.2	1.21309E-001	-1.78561E-005	0.00000E+000	1.21005E-001	0.00000E+000	9	...........	1467.43
	223	22.4	1.23312E-001	-1.77692E-005	0.00000E+000	1.23005E-001	0.00000E+000	9	...........	1467.43
	225	22.6	1.25311E-001	-1.76823E-005	0.00000E+000	1.25005E-001	0.00000E+000	9	...........	1467.43
	227	22.8	1.27311E-001	-1.76028E-005	0.00000E+000	1.27005E-001	0.00000E+000	9	...........	1467.43
	229	23	1.29315E-001	-1.75221E-005	0.00000E+000	1.29005E-001	0.00000E+000	9	...........	1467.43
	231	23.2	1.31313E-001	-1.74457E-005	0.00000E+000	1.31004E-001	0.00000E+000	9	...........	1467.43
	233	23.4	1.33315E-001	-1.73827E-005	0.00000E+000	1.33004E-001	0.00000E+000	9	...........	1467.43
	235	23.6	1.35315E-001	-1.73097E-005	0.00000E+000	1.35004E-001	0.00000E+000	9	...........	1467.52
	237	23.8	1.37315E-001	-1.72487E-005	0.00000E+000	1.37004E-001	0.00000E+000	9	...........	1467.52
	239	24	1.39315E-001	-1.71760E-005	0.00000E+000	1.39004E-001	0.00000E+000	9	...........	1467.52
	241	24.2	1.41318E-001	-1.71163E-005	0.00000E+000	1.41003E-001	0.00000E+000	9	...........	1467.52
	243	24.4	1.43314E-001	-1.70534E-005	0.00000E+000	1.43003E-001	0.00000E+000	9	...........	1467.52
	245	24.6	1.45319E-001	-1.69915E-005	0.00000E+000	1.45003E-001	0.00000E+000	9	...........	1467.61
	247	24.8	1.47319E-001	-1.69317E-005	0.00000E+000	1.47003E-001	0.00000E+000	9	...........	1467.61
	249	25	1.49321E-001	-1.68761E-005	0.00000E+000	1.49003E-001	0.00000E+000	9	...........	1467.61
	251	25.2	1.51319E-001	-1.68198E-005	0.00000E+000	1.51002E-001	0.00000E+000	9	...........	1467.61
	253	25.4	1.53317E-001	-1.67640E-005	0.00000E+000	1.53002E-001	0.00000E+000	9	...........	1467.61
	255	25.6	1.55319E-001	-1.67116E-005	0.00000E+000	1.55002E-001	0.00000E+000	9	...........	1467.53
	257	25.8	1.57319E-001	-1.66653E-005	0.00000E+000	1.57002E-001	0.00000E+000	9	...........	1467.52
	259	26	1.59323E-001	-1.66142E-005	0.00000E+000	1.59001E-001	0.00000E+000	9	...........	1467.52
	261	26.2	1.61322E-001	-1.65606E-005	0.00000E+000	1.61001E-001	0.00000E+000	9	...........	1467.52
	263	26.4	1.63321E-001	-1.65146E-005	0.00000E+000	1.63001E-001	0.00000E+000	9	...........	1467.52
	265	26.6	1.65322E-001	-1.64660E-005	0.00000E+000	1.65001E-001	0.00000E+000	9	...........	1467.69
	267	26.8	1.67322E-001	-1.64170E-005	0.00000E+000	1.67001E-001	0.00000E+000	9	...........	1467.70
	269	27	1.69323E-001	-1.63711E-005	0.00000E+000	1.69000E-001	0.00000E+000	9	...........	1467.70
	271	27.2	1.71325E-001	-1.63213E-005	0.00000E+000	1.71000E-001	0.00000E+000	9	...........	1467.70
	273	27.4	1.73326E-001	-1.62733E-005	0.00000E+000	1.73000E-001	0.00000E+000	9	...........	1467.70
	275	27.6	1.75325E-001	-1.62322E-005	0.00000E+000	1.75000E-001	0.00000E+000	9	...........	1467.53
	277	27.8	1.77327E-001	-1.61866E-005	0.00000E+000	1.77000E-001	0.00000E+000	9	...........	1467.52
	279	28	1.79331E-001	-1.61363E-005	0.00000E+000	1.78999E-001	0.00000E+000	9	...........	1467.52
	281	28.2	1.81330E-001	-1.60854E-005	0.00000E+000	1.80999E-001	0.00000E+000	9	...........	1467.52
	283	28.4	1.83331E-001	-1.60438E-005	0.00000E+000	1.82999E-001	0.00000E+000	9	...........	1467.52
	285	28.6	1.85329E-001	-1.59995E-005	0.00000E+000	1.84999E-001	0.00000E+000	9	...........	1467.69
	287	28.8	1.87331E-001	-1.59573E-005	0.00000E+000	1.86999E-001	0.00000E+000	9	...........	1467.70
	289	29	1.89328E-001	-1.59109E-005	0.00000E+000	1.88998E-001	0.00000E+000	9	...........	1467.70
	291	29.2	1.91332E-001	-1.58625E-005	0.00000E+000	1.90998E-001	0.00000E+000	9	...........	1467.70
	293	29.4	1.93333E-001	-1.58151E-005	0.00000E+000	1.92998E-001	0.00000E+000	9	...........	1467.70
	295	29.6	1.95333E-001	-1.57740E-005	0.00000E+000	1.94998E-001	0.00000E+000	9	...........	1467.53
	297	29.8	1.97335E-001	-1.57286E-005	0.00000E+000	1.96998E-001	0.00000E+000	9	...........	1467.52
	299	30	1.99336E-001	-1.56846E-005	0.00000E+000	1.98997E-001	0.00000E+000	9	...........	1467.52
	301	30.2	1.99339E-001	-1.67637E-005	0.00000E+000	1.98997E-001	0.00000E+000	9	...........	1467.52
	303	30.4	1.97339E-001	-1.70592E-005	0.00000E+000	1.96998E-001	0.00000E+000	9	...........	1467.52
[...]
	431	43.2	1.31314E-001	-1.75705E-005	0.00000E+000	1.31004E-001	0.00000E+000	9	...........	1467.52
	433	43.4	1.33317E-001	-1.74938E-005	0.00000E+000	1.33004E-001	0.00000E+000	9	...........	1467.52
	435	43.6	1.35316E-001	-1.74161E-005	0.00000E+000	1.35004E-001	0.00000E+000	9	...........	1467.43
	437	43.8	1.37318E-001	-1.73384E-005	0.00000E+000	1.37004E-001	0.00000E+000	9	...........	1467.43
	439	44	1.39317E-001	-1.72675E-005	0.00000E+000	1.39004E-001	0.00000E+000	9	...........	1467.43
	441	44.2	1.41319E-001	-1.71963E-005	0.00000E+000	1.41003E-001	0.00000E+000	9	...........	1467.43
	443	44.4	1.43316E-001	-1.71320E-005	0.00000E+000	1.43003E-001	0.00000E+000	9	...........	1467.43
	445	44.6	1.45318E-001	-1.70606E-005	0.00000E+000	1.45003E-001	0.00000E+000	9	...........	1467.43
	447	44.8	1.47320E-001	-1.70002E-005	0.00000E+000	1.47003E-001	0.00000E+000	9	...........	1467.43
	449	45	1.49321E-001	-1.69340E-005	0.00000E+000	1.49003E-001	0.00000E+000	9	...........	1467.43
	451	45.2	1.51316E-001	-1.68803E-005	0.00000E+000	1.51002E-001	0.00000E+000	9	...........	1467.43
	453	45.4	1.53316E-001	-1.68197E-005	0.00000E+000	1.53002E-001	0.00000E+000	9	...........	1467.43
	455	45.6	1.55319E-001	-1.67602E-005	0.00000E+000	1.55002E-001	0.00000E+000	9	...........	1467.43
	457	45.8	1.57318E-001	-1.67012E-005	0.00000E+000	1.57002E-001	0.00000E+000	9	...........	1467.43
	459	46	1.59321E-001	-1.66491E-005	0.00000E+000	1.59001E-001	0.00000E+000	9	...........	1467.43
	461	46.2	1.61323E-001	-1.65945E-005	0.00000E+000	1.61001E-001	0.00000E+000	9	...........	1467.43
	463	46.4	1.63322E-001	-1.65430E-005	0.00000E+000	1.63001E-001	0.00000E+000	9	...........	1467.43
	465	46.6	1.65323E-001	-1.64930E-005	0.00000E+000	1.65001E-001	0.00000E+000	9	...........	1467.52
	467	46.8	1.67323E-001	-1.64431E-005	0.00000E+000	1.67001E-001	0.00000E+000	9	...........	1467.52
	469	47	1.69324E-001	-1.63949E-005	0.00000E+000	1.69000E-001	0.00000E+000	9	...........	1467.52
	471	47.2	1.71325E-001	-1.63442E-005	0.00000E+000	1.71000E-001	0.00000E+000	9	...........	1467.52
	473	47.4	1.73327E-001	-1.62923E-005	0.00000E+000	1.73000E-001	0.00000E+000	9	...........	1467.52
	475	47.6	1.75326E-001	-1.62457E-005	0.00000E+000	1.75000E-001	0.00000E+000	9	...........	1467.52
	477	47.8	1.77329E-001	-1.62008E-005	0.00000E+000	1.77000E-001	0.00000E+000	9	...........	1467.52
	479	48	1.79331E-001	-1.61560E-005	0.00000E+000	1.78999E-001	0.00000E+000	9	...........	1467.52
	481	48.2	1.81330E-001	-1.61043E-005	0.00000E+000	1.80999E-001	0.00000E+000	9	...........	1467.52
	483	48.4	1.83331E-001	-1.60516E-005	0.00000E+000	1.82999E-001	0.00000E+000	9	...........	1467.52
	485	48.6	1.85330E-001	-1.60100E-005	0.00000E+000	1.84999E-001	0.00000E+000	9	...........	1467.52
	487	48.8	1.87331E-001	-1.59621E-005	0.00000E+000	1.86999E-001	0.00000E+000	9	...........	1467.52
	489	49	1.89327E-001	-1.59193E-005	0.00000E+000	1.88998E-001	0.00000E+000	9	...........	1467.52
	491	49.2	1.91331E-001	-1.58696E-005	0.00000E+000	1.90998E-001	0.00000E+000	9	...........	1467.52
	493	49.4	1.93335E-001	-1.58179E-005	0.00000E+000	1.92998E-001	0.00000E+000	9	...........	1467.52
	495	49.6	1.95332E-001	-1.57758E-005	0.00000E+000	1.94998E-001	0.00000E+000	9	...........	1467.61
	497	49.8	1.97335E-001	-1.57334E-005	0.00000E+000	1.96998E-001	0.00000E+000	9	...........	1467.61
	499	50	1.99336E-001	-1.56867E-005	0.00000E+000	1.98997E-001	0.00000E+000	9	...........	1467.61
	501	50.2	1.99339E-001	-1.67471E-005	0.00000E+000	1.98997E-001	0.00000E+000	9	...........	1467.61
	503	50.4	1.97338E-001	-1.70362E-005	0.00000E+000	1.96998E-001	0.00000E+000	9	...........	1467.61
	505	50.6	1.95338E-001	-1.72499E-005	0.00000E+000	1.94998E-001	0.00000E+000	9	...........	1467.52
	507	50.8	1.93338E-001	-1.74218E-005	0.00000E+000	1.92998E-001	0.00000E+000	9	...........	1467.52
	509	51	1.91337E-001	-1.75667E-005	0.00000E+000	1.90998E-001	0.00000E+000	9	...........	1467.52
	511	51.2	1.89334E-001	-1.77024E-005	0.00000E+000	1.88998E-001	0.00000E+000	9	...........	1467.52
	513	51.4	1.87337E-001	-1.78219E-005	0.00000E+000	1.86999E-001	0.00000E+000	9	...........	1467.52
	515	51.6	1.85335E-001	-1.79346E-005	0.00000E+000	1.84999E-001	0.00000E+000	9	...........	1467.70
	517	51.8	1.83336E-001	-1.80314E-005	0.00000E+000	1.82999E-001	0.00000E+000	9	...........	1467.70
	519	52	1.81334E-001	-1.81339E-005	0.00000E+000	1.80999E-001	0.00000E+000	9	...........	1467.70
	521	52.2	1.79335E-001	-1.82197E-005	0.00000E+000	1.78999E-001	0.00000E+000	9	...........	1467.70
	523	52.4	1.77333E-001	-1.83046E-005	0.00000E+000	1.77000E-001	0.00000E+000	9	...........	1467.70
	525	52.6	1.75330E-001	-1.83892E-005	0.00000E+000	1.75000E-001	0.00000E+000	9	...........	1467.52
	527	52.8	1.73330E-001	-1.84663E-005	0.00000E+000	1.73000E-001	0.00000E+000	9	...........	1467.52
	529	53	1.71329E-001	-1.85435E-005	0.00000E+000	1.71000E-001	0.00000E+000	9	...........	1467.52
	531	53.2	1.69328E-001	-1.86186E-005	0.00000E+000	1.69000E-001	0.00000E+000	9	...........	1467.52
	533	53.4	1.67328E-001	-1.86831E-005	0.00000E+000	1.67001E-001	0.00000E+000	9	...........	1467.52
	535	53.6	1.65329E-001	-1.87490E-005	0.00000E+000	1.65001E-001	0.00000E+000	9	...........	1467.79
	537	53.8	1.63326E-001	-1.88159E-005	0.00000E+000	1.63001E-001	0.00000E+000	9	...........	1467.79
	539	54	1.61324E-001	-1.88803E-005	0.00000E+000	1.61001E-001	0.00000E+000	9	...........	1467.79
	541	54.2	1.59324E-001	-1.89452E-005	0.00000E+000	1.59001E-001	0.00000E+000	9	...........	1467.79
	543	54.4	1.57322E-001	-1.90078E-005	0.00000E+000	1.57002E-001	0.00000E+000	9	...........	1467.79
	545	54.6	1.55322E-001	-1.90762E-005	0.00000E+000	1.55002E-001	0.00000E+000	9	...........	1467.52
	547	54.8	1.53320E-001	-1.91337E-005	0.00000E+000	1.53002E-001	0.00000E+000	9	...........	1467.52
	549	55	1.51323E-001	-1.91875E-005	0.00000E+000	1.51002E-001	0.00000E+000	9	...........	1467.52
	551	55.2	1.49325E-001	-1.92450E-005	0.00000E+000	1.49003E-001	0.00000E+000	9	...........	1467.52
	553	55.4	1.47324E-001	-1.93030E-005	0.00000E+000	1.47003E-001	0.00000E+000	9	...........	1467.52
	555	55.6	1.45324E-001	-1.93549E-005	0.00000E+000	1.45003E-001	0.00000E+000	9	...........	1467.79
	557	55.8	1.43322E-001	-1.94163E-005	0.00000E+000	1.43003E-001	0.00000E+000	9	...........	1467.79
	559	56	1.41325E-001	-1.94678E-005	0.00000E+000	1.41003E-001	0.00000E+000	9	...........	1467.79
	561	56.2	1.39323E-001	-1.95200E-005	0.00000E+000	1.39004E-001	0.00000E+000	9	...........	1467.79
	563	56.4	1.37321E-001	-1.95721E-005	0.00000E+000	1.37004E-001	0.00000E+000	9	...........	1467.79
	565	56.6	1.35321E-001	-1.96278E-005	0.00000E+000	1.35004E-001	0.00000E+000	9	...........	1467.52
	567	56.8	1.33320E-001	-1.96794E-005	0.00000E+000	1.33004E-001	0.00000E+000	9	...........	1467.52
	569	57	1.31319E-001	-1.97350E-005	0.00000E+000	1.31004E-001	0.00000E+000	9	...........	1467.52
	571	57.2	1.29319E-001	-1.97841E-005	0.00000E+000	1.29005E-001	0.00000E+000	9	...........	1467.52
	573	57.4	1.27315E-001	-1.98374E-005	0.00000E+000	1.27005E-001	0.00000E+000	9	...........	1467.52
	575	57.6	1.25317E-001	-1.98911E-005	0.00000E+000	1.25005E-001	0.00000E+000	9	...........	1467.88
	577	57.8	1.23316E-001	-1.99440E-005	0.00000E+000	1.23005E-001	0.00000E+000	9	...........	1467.88
	579	58	1.21316E-001	-1.99947E-005	0.00000E+000	1.21005E-001	0.00000E+000	9	...........	1467.88
	581	58.2	1.19316E-001	-2.00517E-005	0.00000E+000	1.19006E-001	0.00000E+000	9	...........	1467.88
	583	58.4	1.17311E-001	-2.01043E-005	0.00000E+000	1.17006E-001	0.00000E+000	9	...........	1467.88
	585	58.6	1.15314E-001	-2.01547E-005	0.00000E+000	1.15006E-001	0.00000E+000	9	...........	1467.52
	587	58.8	1.13314E-001	-2.02061E-005	0.00000E+000	1.13006E-001	0.00000E+000	9	...........	1467.52
	589	59	1.11297E-001	-2.02569E-005	0.00000E+000	1.10994E-001	0.00000E+000	9	...........	1467.52
	591	59.2	1.09299E-001	-2.03117E-005	0.00000E+000	1.08994E-001	0.00000E+000	9	...........	1467.52
	593	59.4	1.07296E-001	-2.03634E-005	0.00000E+000	1.06994E-001	0.00000E+000	9	...........	1467.52
	595	59.6	1.05293E-001	-2.04169E-005	0.00000E+000	1.04994E-001	0.00000E+000	9	...........	1467.88
	597	59.8	1.03295E-001	-2.04698E-005	0.00000E+000	1.02995E-001	0.00000E+000	9	...........	1467.88
	599	60	1.01295E-001	-2.05250E-005	0.00000E+000	1.00995E-001	0.00000E+000	9	...........	1467.88
	600	60.1	1.00294E-001	-2.05488E-005	0.00000E+000	9.99950E-002	0.00000E+000	9	...........	1467.88
CURVE4	TABLE
	Pt	T	Vf	Im	Vu	Sig	Ach	IERange	Over	Temp
	#	s	V vs. Ref.	A	V	V	V	#	bits	deg C
	601	60.2	1.00291E-001	-2.00185E-005	0.00000E+000	9.99950E-002	0.00000E+000	9	...........	1467.88