File: input/CV_ECSA_#1_#9.DTA
EXPLAIN
TAG	CV
TITLE	LABEL	ECSA	Test Identifier
DATE	LABEL	20.8.2024	Date
TIME	LABEL	8:39:39	Time
NOTES	NOTES	1	Notes...

PSTAT	PSTAT	IFC1010-36105	Potentiostat
VINIT	POTEN	-2.00000E-001	F	A Potential (V)
VLIMIT1	POTEN	0.00000E+000	F	A Potential (V)
VLIMIT2	POTEN	-2.00000E-001	F	A Potential (V)
VFINAL	POTEN	-2.00000E-001	F	A Potential (V)
SCANRATE	QUANT	8.99998E+001	A Real Number
STEPSIZE	QUANT	1.00000E+000	Step Size (mV)
CYCLES	IQUANT	3	Cycles (#)
IMODE	SELECTOR	1	I/E Range Mode
IRANGE	QUANT	3.00000E-001	Max Current (mA)
AREA	QUANT	1.00000E+000	Sample Area (cm^2)
EQDELAY	QUANT	0.00000E+000	Equil. Time (s)
IRCOMP	SELECTOR	0	IRComp
PFCOR	QUANT	5.00000E+001	PF Corr. (ohm)
SAMPLINGMODE	SELECTOR	2	Sampling Mode
EOC	QUANT	-0.1790659	Open Circuit (V)
ELECTRODETYPE	SELECTOR	0	Electrode Type
STRIPPING	TOGGLE	F	Used for Stripping
SEQUENCER	TOGGLE	TRUE	Run as Sequence
PSTATMODEL	IQUANT	64	Pstat Model
PSTATSECTION	LABEL	IFC1010-36105	Pstat Section
PSTATSERIALNO	LABEL	36105	Pstat Serial Number
CTRLMODE	IQUANT	1	Control Mode
ELECTROMETER	IQUANT	0	RE=0 or CS=1
IESTAB	IQUANT	2	I/E Stability
CASPEED	IQUANT	4	Control Amp Speed
CONVENTION	IQUANT	1	Current Convention
ICHRANGE	IQUANT	2	Ich Range
ICHRANGEMODE	TOGGLE	F	Ich Auto Range
ICHOFFSETENABLE	TOGGLE	F	Ich Offset Enable
ICHOFFSET	QUANT	0	Ich Offset (V)
ICHFILTER	IQUANT	3	Ich Filter
VCHRANGE	IQUANT	1	Vch Range
VCHRANGEMODE	TOGGLE	F	Vch Auto Range
VCHOFFSETENABLE	TOGGLE	F	Vch Offset Enable
VCHOFFSET	QUANT	0	Vch Offset (V)
VCHFILTER	IQUANT	3	Vch Filter
IERANGELOWERLIMIT	IQUANT	4	I/E Range Lower Limit
IERANGEMODE	TOGGLE	F	I/E AutoRange
IERANGE	IQUANT	9	I/E Range
ACHSELECT	IQUANT	0	Ach Select
ACHRANGE	IQUANT	2	Ach Range
ACHOFFSETENABLE	TOGGLE	F	Ach Offset Enable
ACHOFFSET	QUANT	0	Ach Offset (V)
ACHFILTER	IQUANT	1	Ach Filter
SENSECABLEID	IQUANT	13	Sense Cable ID
PWRCABLEID	IQUANT	13	Power Cable ID
DCCALDATE	LABEL	10/17/2023	DC Calibration Date
ACCALDATE	LABEL	6/2/2023	AC Calibration Date
FRAMEWORKVERSION	LABEL	7.10.3	Framework Version
INSTRUMENTVERSION	LABEL	4.91	Instrument Version
COMMVERSION	LABEL	3.10	Communications Version
CPUPLDVERSION	LABEL	2.22	CPU PLD Version
CTRLPLDVERSION	LABEL	0.00	CTRL PLD Version
PSTATPLDVERSION	LABEL	0.00	PSTAT PLD Version
CURVE1	TABLE
	Pt	T	Vf	Im	Vu	Sig	Ach	IERange	Over	Temp
	#	s	V vs. Ref.	A	V	V	V	#	bits	deg C
	0	0.011117	-2.00080E-001	-4.14628E-007	0.00000E+000	-1.99996E-001	0.00000E+000	9	...........	1488.69
	5	0.0667	-1.95099E-001	2.44164E-006	0.00000E+000	-1.94995E-001	0.00000E+000	9	...........	1488.69
	10	0.122283	-1.90093E-001	2.61831E-006	0.00000E+000	-1.89994E-001	0.00000E+000	9	...........	1488.69
	15	0.177867	-1.85093E-001	2.71889E-006	0.00000E+000	-1.84992E-001	0.00000E+000	9	...........	1488.69
	20	0.23345	-1.80089E-001	2.76228E-006	0.00000E+000	-1.79991E-001	0.00000E+000	9	...........	1488.69
	25	0.289033	-1.75089E-001	2.80577E-006	0.00000E+000	-1.74990E-001	0.00000E+000	9	...........	1488.69
	30	0.344617	-1.70087E-001	2.84304E-006	0.00000E+000	-1.69988E-001	0.00000E+000	9	...........	1488.69
	35	0.4002	-1.65084E-001	2.88091E-006	0.00000E+000	-1.64987E-001	0.00000E+000	9	...........	1488.69
	40	0.455783	-1.60083E-001	2.88568E-006	0.00000E+000	-1.59986E-001	0.00000E+000	9	...........	1488.69
	45	0.511367	-1.55068E-001	2.90218E-006	0.00000E+000	-1.54972E-001	0.00000E+000	9	...........	1488.69
	50	0.56695	-1.50069E-001	2.89616E-006	0.00000E+000	-1.49971E-001	0.00000E+000	9	...........	1488.69
	55	0.622533	-1.45063E-001	2.91001E-006	0.00000E+000	-1.44969E-001	0.00000E+000	9	...........	1488.69
	60	0.678117	-1.40064E-001	2.92411E-006	0.00000E+000	-1.39968E-001	0.00000E+000	9	...........	1488.69
	65	0.7337	-1.35061E-001	2.91412E-006	0.00000E+000	-1.34967E-001	0.00000E+000	9	...........	1488.69
	70	0.789283	-1.30061E-001	2.90976E-006	0.00000E+000	-1.29965E-001	0.00000E+000	9	...........	1488.69
	75	0.844867	-1.25056E-001	2.91603E-006	0.00000E+000	-1.24964E-001	0.00000E+000	9	...........	1488.69
	80	0.90045	-1.20054E-001	2.92285E-006	0.00000E+000	-1.19963E-001	0.00000E+000	9	...........	1488.69
	85	0.95603	-1.15052E-001	2.93093E-006	0.00000E+000	-1.14961E-001	0.00000E+000	9	...........	1488.69
	90	1.01162	-1.10049E-001	2.92290E-006	0.00000E+000	-1.09960E-001	0.00000E+000	9	...........	1488.69
	95	1.0672	-1.05048E-001	2.92676E-006	0.00000E+000	-1.04958E-001	0.00000E+000	9	...........	1488.69
	100	1.12278	-1.00034E-001	2.94813E-006	0.00000E+000	-9.99447E-002	0.00000E+000	9	...........	1488.69
	105	1.17837	-9.50308E-002	2.93604E-006	0.00000E+000	-9.49433E-002	0.00000E+000	9	...........	1488.69
	110	1.23395	-9.00297E-002	2.94151E-006	0.00000E+000	-8.99420E-002	0.00000E+000	9	...........	1488.69
	115	1.28953	-8.50304E-002	2.95501E-006	0.00000E+000	-8.49406E-002	0.00000E+000	9	...........	1488.69
	120	1.34512	-8.00301E-002	2.93845E-006	0.00000E+000	-7.99393E-002	0.00000E+000	9	...........	1488.69
	125	1.4007	-7.50257E-002	2.96955E-006	0.00000E+000	-7.49380E-002	0.00000E+000	9	...........	1488.69
	130	1.45628	-7.00247E-002	2.98049E-006	0.00000E+000	-6.99366E-002	0.00000E+000	9	...........	1488.69
	135	1.51187	-6.50205E-002	2.98209E-006	0.00000E+000	-6.49353E-002	0.00000E+000	9	...........	1488.69
	140	1.56745	-6.00179E-002	2.99634E-006	0.00000E+000	-5.99340E-002	0.00000E+000	9	...........	1488.69
	145	1.62303	-5.50142E-002	3.01691E-006	0.00000E+000	-5.49326E-002	0.00000E+000	9	...........	1488.69
	150	1.67862	-5.00105E-002	3.03216E-006	0.00000E+000	-4.99313E-002	0.00000E+000	9	...........	1488.69
	155	1.7342	-4.49960E-002	3.04756E-006	0.00000E+000	-4.49174E-002	0.00000E+000	9	...........	1488.69
	160	1.78978	-3.99966E-002	3.06687E-006	0.00000E+000	-3.99161E-002	0.00000E+000	9	...........	1488.69
	165	1.84537	-3.49927E-002	3.08433E-006	0.00000E+000	-3.49148E-002	0.00000E+000	9	...........	1488.69
	170	1.90095	-2.99869E-002	3.12566E-006	0.00000E+000	-2.99134E-002	0.00000E+000	9	...........	1488.69
	175	1.95653	-2.49853E-002	3.13895E-006	0.00000E+000	-2.49121E-002	0.00000E+000	9	...........	1488.69
	180	2.01212	-1.99781E-002	3.16037E-006	0.00000E+000	-1.99108E-002	0.00000E+000	9	...........	1488.69
	185	2.0677	-1.49801E-002	3.19468E-006	0.00000E+000	-1.49094E-002	0.00000E+000	9	...........	1488.69
	190	2.12328	-9.97436E-003	3.22318E-006	0.00000E+000	-9.90810E-003	0.00000E+000	9	...........	1488.69
	195	2.17887	-4.96895E-003	3.26506E-006	0.00000E+000	-4.90676E-003	0.00000E+000	9	...........	1488.69
	200	2.23445	2.93164E-005	3.31262E-006	0.00000E+000	9.45777E-005	0.00000E+000	9	...........	1488.69
	205	2.29003	-4.93092E-003	-9.84727E-007	0.00000E+000	-4.90676E-003	0.00000E+000	9	...........	1488.69
	210	2.34562	-9.93356E-003	-1.15969E-006	0.00000E+000	-9.90810E-003	0.00000E+000	9	...........	1488.69
	215	2.4012	-1.49397E-002	-1.26393E-006	0.00000E+000	-1.49094E-002	0.00000E+000	9	...........	1488.69
	220	2.45678	-1.99424E-002	-1.35864E-006	0.00000E+000	-1.99108E-002	0.00000E+000	9	...........	1488.69
	225	2.51237	-2.49465E-002	-1.42210E-006	0.00000E+000	-2.49121E-002	0.00000E+000	9	...........	1488.69
	230	2.56795	-2.99475E-002	-1.48625E-006	0.00000E+000	-2.99134E-002	0.00000E+000	9	...........	1488.69
	235	2.62353	-3.49547E-002	-1.52899E-006	0.00000E+000	-3.49148E-002	0.00000E+000	9	...........	1488.69
	240	2.67912	-3.99572E-002	-1.56501E-006	0.00000E+000	-3.99161E-002	0.00000E+000	9	...........	1488.69
	245	2.7347	-4.49575E-002	-1.60589E-006	0.00000E+000	-4.49174E-002	0.00000E+000	9	...........	1488.69
	250	2.79028	-4.99722E-002	-1.66192E-006	0.00000E+000	-4.99313E-002	0.00000E+000	9	...........	1488.69
	255	2.84587	-5.49768E-002	-1.68395E-006	0.00000E+000	-5.49326E-002	0.00000E+000	9	...........	1488.69
	260	2.90145	-5.99799E-002	-1.71279E-006	0.00000E+000	-5.99340E-002	0.00000E+000	9	...........	1488.69
	265	2.95703	-6.49827E-002	-1.75192E-006	0.00000E+000	-6.49353E-002	0.00000E+000	9	...........	1488.69
	270	3.01262	-6.99864E-002	-1.78367E-006	0.00000E+000	-6.99366E-002	0.00000E+000	9	...........	1488.69
	275	3.0682	-7.49878E-002	-1.81959E-006	0.00000E+000	-7.49380E-002	0.00000E+000	9	...........	1488.69
	280	3.12378	-7.99905E-002	-1.85410E-006	0.00000E+000	-7.99393E-002	0.00000E+000	9	...........	1488.69
	285	3.17937	-8.49909E-002	-1.88741E-006	0.00000E+000	-8.49406E-002	0.00000E+000	9	...........	1488.69
	290	3.23495	-8.99926E-002	-1.91189E-006	0.00000E+000	-8.99420E-002	0.00000E+000	9	...........	1488.69
	295	3.29053	-9.49964E-002	-1.95533E-006	0.00000E+000	-9.49433E-002	0.00000E+000	9	...........	1488.69
	300	3.34612	-9.99975E-002	-1.97534E-006	0.00000E+000	-9.99447E-002	0.00000E+000	9	...........	1488.69
	305	3.4017	-1.05013E-001	-2.03940E-006	0.00000E+000	-1.04958E-001	0.00000E+000	9	...........	1488.69
	310	3.45728	-1.10014E-001	-2.05901E-006	0.00000E+000	-1.09960E-001	0.00000E+000	9	...........	1488.69
	315	3.51287	-1.15016E-001	-2.09583E-006	0.00000E+000	-1.14961E-001	0.00000E+000	9	...........	1488.69
	320	3.56845	-1.20014E-001	-2.12081E-006	0.00000E+000	-1.19963E-001	0.00000E+000	9	...........	1488.69
	325	3.62403	-1.25017E-001	-2.17258E-006	0.00000E+000	-1.24964E-001	0.00000E+000	9	...........	1488.69
	330	3.67962	-1.30022E-001	-2.21171E-006	0.00000E+000	-1.29965E-001	0.00000E+000	9	...........	1488.69
	335	3.7352	-1.35022E-001	-2.24271E-006	0.00000E+000	-1.34967E-001	0.00000E+000	9	...........	1488.69
	340	3.79078	-1.40024E-001	-2.29563E-006	0.00000E+000	-1.39968E-001	0.00000E+000	9	...........	1488.69
	345	3.84637	-1.45025E-001	-2.35392E-006	0.00000E+000	-1.44969E-001	0.00000E+000	9	...........	1488.69
	350	3.90195	-1.50028E-001	-2.41256E-006	0.00000E+000	-1.49971E-001	0.00000E+000	9	...........	1488.69
	355	3.95753	-1.55031E-001	-2.46458E-006	0.00000E+000	-1.54972E-001	0.00000E+000	9	...........	1488.69
	360	4.01312	-1.60044E-001	-2.50887E-006	0.00000E+000	-1.59986E-001	0.00000E+000	9	...........	1488.69
	365	4.0687	-1.65044E-001	-2.56571E-006	0.00000E+000	-1.64987E-001	0.00000E+000	9	...........	1488.69
	370	4.12428	-1.70046E-001	-2.63894E-006	0.00000E+000	-1.69988E-001	0.00000E+000	9	...........	1488.69
	375	4.17987	-1.75050E-001	-2.72748E-006	0.00000E+000	-1.74990E-001	0.00000E+000	9	...........	1488.69
	380	4.23545	-1.80052E-001	-2.79385E-006	0.00000E+000	-1.79991E-001	0.00000E+000	9	...........	1488.69
	385	4.29103	-1.85052E-001	-2.88173E-006	0.00000E+000	-1.84992E-001	0.00000E+000	9	...........	1488.69
	390	4.34662	-1.90054E-001	-2.97403E-006	0.00000E+000	-1.89994E-001	0.00000E+000	9	...........	1488.69
	395	4.4022	-1.95059E-001	-3.09282E-006	0.00000E+000	-1.94995E-001	0.00000E+000	9	...........	1488.69
	400	4.45778	-2.00062E-001	-3.20237E-006	0.00000E+000	-1.99996E-001	0.00000E+000	9	...........	1488.69
CURVE2	TABLE
	Pt	T	Vf	Im	Vu	Sig	Ach	IERange	Over	Temp
	#	s	V vs. Ref.	A	V	V	V	#	bits	deg C
	401	4.4689	-1.99104E-001	1.70495E-006	0.00000E+000	-1.98996E-001	0.00000E+000	9	...........	1488.69
	406	4.52448	-1.94097E-001	2.33259E-006	0.00000E+000	-1.93995E-001	0.00000E+000	9	...........	1488.69
	411	4.58007	-1.89095E-001	2.53108E-006	0.00000E+000	-1.88993E-001	0.00000E+000	9	...........	1488.69
	416	4.63565	-1.84091E-001	2.65649E-006	0.00000E+000	-1.83992E-001	0.00000E+000	9	...........	1488.69
	421	4.69123	-1.79090E-001	2.73910E-006	0.00000E+000	-1.78991E-001	0.00000E+000	9	...........	1488.69
	426	4.74682	-1.74086E-001	2.77377E-006	0.00000E+000	-1.73989E-001	0.00000E+000	9	...........	1488.69
	431	4.8024	-1.69084E-001	2.80738E-006	0.00000E+000	-1.68988E-001	0.00000E+000	9	...........	1488.69
	436	4.85798	-1.64084E-001	2.82253E-006	0.00000E+000	-1.63987E-001	0.00000E+000	9	...........	1488.69
	441	4.91357	-1.59079E-001	2.85242E-006	0.00000E+000	-1.58985E-001	0.00000E+000	9	...........	1488.69
	446	4.96915	-1.54066E-001	2.87073E-006	0.00000E+000	-1.53972E-001	0.00000E+000	9	...........	1488.69
	451	5.02473	-1.49068E-001	2.87143E-006	0.00000E+000	-1.48970E-001	0.00000E+000	9	...........	1488.69
	456	5.08032	-1.44066E-001	2.87655E-006	0.00000E+000	-1.43969E-001	0.00000E+000	9	...........	1488.69
	461	5.1359	-1.39066E-001	2.89381E-006	0.00000E+000	-1.38968E-001	0.00000E+000	9	...........	1488.69
	466	5.19148	-1.34063E-001	2.89732E-006	0.00000E+000	-1.33966E-001	0.00000E+000	9	...........	1488.69
	471	5.24707	-1.29059E-001	2.90324E-006	0.00000E+000	-1.28965E-001	0.00000E+000	9	...........	1488.69
	476	5.30265	-1.24056E-001	2.89998E-006	0.00000E+000	-1.23964E-001	0.00000E+000	9	...........	1488.69
	481	5.35823	-1.19054E-001	2.90238E-006	0.00000E+000	-1.18962E-001	0.00000E+000	9	...........	1488.69
	486	5.41382	-1.14050E-001	2.90640E-006	0.00000E+000	-1.13961E-001	0.00000E+000	9	...........	1488.69
	491	5.4694	-1.09051E-001	2.90775E-006	0.00000E+000	-1.08960E-001	0.00000E+000	9	...........	1488.69
	496	5.52498	-1.04050E-001	2.90710E-006	0.00000E+000	-1.03958E-001	0.00000E+000	9	...........	1488.69
	501	5.58057	-9.90385E-002	2.90364E-006	0.00000E+000	-9.89444E-002	0.00000E+000	9	...........	1488.69
	506	5.63615	-9.40349E-002	2.91708E-006	0.00000E+000	-9.39431E-002	0.00000E+000	9	...........	1488.69
	511	5.69173	-8.90321E-002	2.93479E-006	0.00000E+000	-8.89417E-002	0.00000E+000	9	...........	1488.69
	516	5.74732	-8.40288E-002	2.93504E-006	0.00000E+000	-8.39404E-002	0.00000E+000	9	...........	1488.69
	521	5.8029	-7.90296E-002	2.92451E-006	0.00000E+000	-7.89390E-002	0.00000E+000	9	...........	1488.69
	526	5.85848	-7.40264E-002	2.95064E-006	0.00000E+000	-7.39377E-002	0.00000E+000	9	...........	1488.69
	531	5.91407	-6.90231E-002	2.96895E-006	0.00000E+000	-6.89364E-002	0.00000E+000	9	...........	1488.69
	536	5.96965	-6.40213E-002	2.98596E-006	0.00000E+000	-6.39350E-002	0.00000E+000	9	...........	1488.69
	541	6.02523	-5.90163E-002	2.99639E-006	0.00000E+000	-5.89337E-002	0.00000E+000	9	...........	1488.69
	546	6.08082	-5.40139E-002	3.00085E-006	0.00000E+000	-5.39324E-002	0.00000E+000	9	...........	1488.69
	551	6.1364	-4.89991E-002	3.04379E-006	0.00000E+000	-4.89185E-002	0.00000E+000	9	...........	1488.69
	556	6.19198	-4.39989E-002	3.04098E-006	0.00000E+000	-4.39172E-002	0.00000E+000	9	...........	1488.69
	561	6.24757	-3.89951E-002	3.07399E-006	0.00000E+000	-3.89158E-002	0.00000E+000	9	...........	1488.69
	566	6.30315	-3.39913E-002	3.08794E-006	0.00000E+000	-3.39145E-002	0.00000E+000	9	...........	1488.69
	571	6.35873	-2.89874E-002	3.10805E-006	0.00000E+000	-2.89132E-002	0.00000E+000	9	...........	1488.69
	576	6.41432	-2.39850E-002	3.13885E-006	0.00000E+000	-2.39118E-002	0.00000E+000	9	...........	1488.69
	581	6.4699	-1.89804E-002	3.16524E-006	0.00000E+000	-1.89105E-002	0.00000E+000	9	...........	1488.69
	586	6.52548	-1.39795E-002	3.21149E-006	0.00000E+000	-1.39092E-002	0.00000E+000	9	...........	1488.69
	591	6.58107	-8.97472E-003	3.23356E-006	0.00000E+000	-8.90782E-003	0.00000E+000	9	...........	1488.69
	596	6.63665	-3.97114E-003	3.26361E-006	0.00000E+000	-3.90649E-003	0.00000E+000	9	...........	1488.69
	601	6.69223	-9.31309E-004	-5.80817E-007	0.00000E+000	-9.05685E-004	0.00000E+000	9	...........	1488.69
	606	6.74782	-5.93163E-003	-1.03308E-006	0.00000E+000	-5.90702E-003	0.00000E+000	9	...........	1488.69
	611	6.8034	-1.09364E-002	-1.19501E-006	0.00000E+000	-1.09084E-002	0.00000E+000	9	...........	1488.69
	616	6.85898	-1.59419E-002	-1.29544E-006	0.00000E+000	-1.59097E-002	0.00000E+000	9	...........	1488.69
	621	6.91457	-2.09447E-002	-1.36556E-006	0.00000E+000	-2.09110E-002	0.00000E+000	9	...........	1488.69
	626	6.97015	-2.59465E-002	-1.41517E-006	0.00000E+000	-2.59124E-002	0.00000E+000	9	...........	1488.69
	631	7.02573	-3.09470E-002	-1.46228E-006	0.00000E+000	-3.09137E-002	0.00000E+000	9	...........	1488.69
	636	7.08132	-3.59500E-002	-1.49002E-006	0.00000E+000	-3.59150E-002	0.00000E+000	9	...........	1488.69
	641	7.1369	-4.09538E-002	-1.52864E-006	0.00000E+000	-4.09164E-002	0.00000E+000	9	...........	1488.69
	646	7.19248	-4.59607E-002	-1.55954E-006	0.00000E+000	-4.59177E-002	0.00000E+000	9	...........	1488.69
	651	7.24807	-5.09750E-002	-1.60364E-006	0.00000E+000	-5.09316E-002	0.00000E+000	9	...........	1488.69
	656	7.30365	-5.59792E-002	-1.64858E-006	0.00000E+000	-5.59329E-002	0.00000E+000	9	...........	1488.69
	661	7.35923	-6.09827E-002	-1.71419E-006	0.00000E+000	-6.09342E-002	0.00000E+000	9	...........	1488.69
	666	7.41482	-6.59847E-002	-1.76265E-006	0.00000E+000	-6.59356E-002	0.00000E+000	9	...........	1488.69
	671	7.4704	-7.09868E-002	-1.78728E-006	0.00000E+000	-7.09369E-002	0.00000E+000	9	...........	1488.69
	676	7.52598	-7.59882E-002	-1.82566E-006	0.00000E+000	-7.59382E-002	0.00000E+000	9	...........	1488.69
	681	7.58157	-8.09936E-002	-1.86222E-006	0.00000E+000	-8.09396E-002	0.00000E+000	9	...........	1488.69
	686	7.63715	-8.59902E-002	-1.90155E-006	0.00000E+000	-8.59409E-002	0.00000E+000	9	...........	1488.69
	691	7.69273	-9.09923E-002	-1.93642E-006	0.00000E+000	-9.09423E-002	0.00000E+000	9	...........	1488.69
	696	7.74832	-9.59928E-002	-1.95708E-006	0.00000E+000	-9.59436E-002	0.00000E+000	9	...........	1488.69
	701	7.8039	-1.00995E-001	-1.98477E-006	0.00000E+000	-1.00945E-001	0.00000E+000	9	...........	1488.69
	706	7.85948	-1.06010E-001	-2.03499E-006	0.00000E+000	-1.05959E-001	0.00000E+000	9	...........	1488.69
	711	7.91507	-1.11013E-001	-2.06905E-006	0.00000E+000	-1.10960E-001	0.00000E+000	9	...........	1488.69
	716	7.97065	-1.16017E-001	-2.10476E-006	0.00000E+000	-1.15961E-001	0.00000E+000	9	...........	1488.69
	721	8.02623	-1.21017E-001	-2.14885E-006	0.00000E+000	-1.20963E-001	0.00000E+000	9	...........	1488.69
[...]
CURVE3	TABLE
	Pt	T	Vf	Im	Vu	Sig	Ach	IERange	Over	Temp
	#	s	V vs. Ref.	A	V	V	V	#	bits	deg C
	801	8.91557	-1.99102E-001	1.69968E-006	0.00000E+000	-1.98996E-001	0.00000E+000	9	...........	1488.69
	806	8.97115	-1.94098E-001	2.34177E-006	0.00000E+000	-1.93995E-001	0.00000E+000	9	...........	1488.69
	811	9.02673	-1.89096E-001	2.53996E-006	0.00000E+000	-1.88993E-001	0.00000E+000	9	...........	1488.69
	816	9.08232	-1.84092E-001	2.66140E-006	0.00000E+000	-1.83992E-001	0.00000E+000	9	...........	1488.69
	821	9.1379	-1.79091E-001	2.72100E-006	0.00000E+000	-1.78991E-001	0.00000E+000	9	...........	1488.69
	826	9.19348	-1.74088E-001	2.75611E-006	0.00000E+000	-1.73989E-001	0.00000E+000	9	...........	1488.69
	831	9.24907	-1.69086E-001	2.81209E-006	0.00000E+000	-1.68988E-001	0.00000E+000	9	...........	1488.69
	836	9.30465	-1.64085E-001	2.83196E-006	0.00000E+000	-1.63987E-001	0.00000E+000	9	...........	1488.69
	841	9.36023	-1.59081E-001	2.85247E-006	0.00000E+000	-1.58985E-001	0.00000E+000	9	...........	1488.69
	846	9.41582	-1.54069E-001	2.84480E-006	0.00000E+000	-1.53972E-001	0.00000E+000	9	...........	1488.69
	851	9.4714	-1.49069E-001	2.86426E-006	0.00000E+000	-1.48970E-001	0.00000E+000	9	...........	1488.69
	856	9.527	-1.44066E-001	2.86953E-006	0.00000E+000	-1.43969E-001	0.00000E+000	9	...........	1488.69
	861	9.5826	-1.39063E-001	2.88518E-006	0.00000E+000	-1.38968E-001	0.00000E+000	9	...........	1488.69
	866	9.6382	-1.34060E-001	2.88297E-006	0.00000E+000	-1.33966E-001	0.00000E+000	9	...........	1488.69
	871	9.6937	-1.29061E-001	2.88493E-006	0.00000E+000	-1.28965E-001	0.00000E+000	9	...........	1488.69
	876	9.7493	-1.24058E-001	2.88498E-006	0.00000E+000	-1.23964E-001	0.00000E+000	9	...........	1488.69
	881	9.8049	-1.19054E-001	2.89195E-006	0.00000E+000	-1.18962E-001	0.00000E+000	9	...........	1488.69
	886	9.8605	-1.14051E-001	2.89471E-006	0.00000E+000	-1.13961E-001	0.00000E+000	9	...........	1488.69
	891	9.9161	-1.09049E-001	2.90073E-006	0.00000E+000	-1.08960E-001	0.00000E+000	9	...........	1488.69
	896	9.9717	-1.04047E-001	2.90770E-006	0.00000E+000	-1.03958E-001	0.00000E+000	9	...........	1488.69
	901	10.0272	-9.90356E-002	2.90675E-006	0.00000E+000	-9.89444E-002	0.00000E+000	9	...........	1488.69
	906	10.0828	-9.40305E-002	2.90830E-006	0.00000E+000	-9.39431E-002	0.00000E+000	9	...........	1488.69
	911	10.1384	-8.90302E-002	2.92380E-006	0.00000E+000	-8.89417E-002	0.00000E+000	9	...........	1488.69
	916	10.194	-8.40278E-002	2.91718E-006	0.00000E+000	-8.39404E-002	0.00000E+000	9	...........	1488.69
	921	10.2496	-7.90272E-002	2.93875E-006	0.00000E+000	-7.89390E-002	0.00000E+000	9	...........	1488.69
	926	10.3052	-7.40252E-002	2.94653E-006	0.00000E+000	-7.39377E-002	0.00000E+000	9	...........	1488.69
	931	10.3607	-6.90199E-002	2.95741E-006	0.00000E+000	-6.89364E-002	0.00000E+000	9	...........	1488.69
	936	10.4163	-6.40197E-002	2.97306E-006	0.00000E+000	-6.39350E-002	0.00000E+000	9	...........	1488.69
	941	10.4719	-5.90159E-002	2.98927E-006	0.00000E+000	-5.89337E-002	0.00000E+000	9	...........	1488.69
	946	10.5275	-5.40139E-002	2.99764E-006	0.00000E+000	-5.39324E-002	0.00000E+000	9	...........	1488.69
	951	10.5831	-4.89967E-002	3.04725E-006	0.00000E+000	-4.89185E-002	0.00000E+000	9	...........	1488.69
	956	10.6386	-4.39965E-002	3.03185E-006	0.00000E+000	-4.39172E-002	0.00000E+000	9	...........	1488.69
	961	10.6942	-3.89934E-002	3.04103E-006	0.00000E+000	-3.89158E-002	0.00000E+000	9	...........	1488.69
	966	10.7498	-3.39930E-002	3.06807E-006	0.00000E+000	-3.39145E-002	0.00000E+000	9	...........	1488.69
	971	10.8054	-2.89887E-002	3.09446E-006	0.00000E+000	-2.89132E-002	0.00000E+000	9	...........	1488.69
	976	10.861	-2.39854E-002	3.11778E-006	0.00000E+000	-2.39118E-002	0.00000E+000	9	...........	1488.69
	981	10.9166	-1.89803E-002	3.16413E-006	0.00000E+000	-1.89105E-002	0.00000E+000	9	...........	1488.69
	986	10.9721	-1.39763E-002	3.17492E-006	0.00000E+000	-1.39092E-002	0.00000E+000	9	...........	1488.69
	991	11.0277	-8.97313E-003	3.20808E-006	0.00000E+000	-8.90782E-003	0.00000E+000	9	...........	1488.69
	996	11.0833	-3.97067E-003	3.25297E-006	0.00000E+000	-3.90649E-003	0.00000E+000	9	...........	1488.69
	1001	11.1389	-9.30963E-004	-6.02036E-007	0.00000E+000	-9.05685E-004	0.00000E+000	9	...........	1488.69
	1006	11.1945	-5.93513E-003	-1.05681E-006	0.00000E+000	-5.90702E-003	0.00000E+000	9	...........	1488.69
	1011	11.2501	-1.09383E-002	-1.19566E-006	0.00000E+000	-1.09084E-002	0.00000E+000	9	...........	1488.69
	1016	11.3056	-1.59436E-002	-1.29895E-006	0.00000E+000	-1.59097E-002	0.00000E+000	9	...........	1488.69
	1021	11.3612	-2.09456E-002	-1.38297E-006	0.00000E+000	-2.09110E-002	0.00000E+000	9	...........	1488.69
	1026	11.4168	-2.59470E-002	-1.43494E-006	0.00000E+000	-2.59124E-002	0.00000E+000	9	...........	1488.69
	1031	11.4724	-3.09489E-002	-1.49237E-006	0.00000E+000	-3.09137E-002	0.00000E+000	9	...........	1488.69
	1036	11.528	-3.59501E-002	-1.53115E-006	0.00000E+000	-3.59150E-002	0.00000E+000	9	...........	1488.69
	1041	11.5836	-4.09550E-002	-1.56973E-006	0.00000E+000	-4.09164E-002	0.00000E+000	9	...........	1488.69
	1046	11.6391	-4.59605E-002	-1.62049E-006	0.00000E+000	-4.59177E-002	0.00000E+000	9	...........	1488.69
	1051	11.6947	-5.09751E-002	-1.66990E-006	0.00000E+000	-5.09316E-002	0.00000E+000	9	...........	1488.69
	1056	11.7503	-5.59753E-002	-1.68971E-006	0.00000E+000	-5.59329E-002	0.00000E+000	9	...........	1488.69
	1061	11.8059	-6.09791E-002	-1.72463E-006	0.00000E+000	-6.09342E-002	0.00000E+000	9	...........	1488.69
	1066	11.8615	-6.59825E-002	-1.75327E-006	0.00000E+000	-6.59356E-002	0.00000E+000	9	...........	1488.69
	1071	11.9171	-7.09859E-002	-1.79586E-006	0.00000E+000	-7.09369E-002	0.00000E+000	9	...........	1488.69
	1076	11.9727	-7.59886E-002	-1.83739E-006	0.00000E+000	-7.59382E-002	0.00000E+000	9	...........	1488.69
	1081	12.0282	-8.09892E-002	-1.84913E-006	0.00000E+000	-8.09396E-002	0.00000E+000	9	...........	1488.69
	1086	12.0838	-8.59883E-002	-1.88901E-006	0.00000E+000	-8.59409E-002	0.00000E+000	9	...........	1488.69
	1091	12.1394	-9.09937E-002	-1.92914E-006	0.00000E+000	-9.09423E-002	0.00000E+000	9	...........	1488.69
	1096	12.195	-9.59924E-002	-1.96024E-006	0.00000E+000	-9.59436E-002	0.00000E+000	9	...........	1488.69
	1101	12.2506	-1.00995E-001	-1.97981E-006	0.00000E+000	-1.00945E-001	0.00000E+000	9	...........	1488.69
	1106	12.3062	-1.06012E-001	-2.02746E-006	0.00000E+000	-1.05959E-001	0.00000E+000	9	...........	1488.69
	1111	12.3617	-1.11013E-001	-2.07456E-006	0.00000E+000	-1.10960E-001	0.00000E+000	9	...........	1488.69
	1116	12.4173	-1.16014E-001	-2.10968E-006	0.00000E+000	-1.15961E-001	0.00000E+000	9	...........	1488.69
	1121	12.4729	-1.21015E-001	-2.15191E-006	0.00000E+000	-1.20963E-001	0.00000E+000	9	...........	1488.69
	1126	12.5285	-1.26019E-001	-2.18547E-006	0.00000E+000	-1.25964E-001	0.00000E+000	9	...........	1488.90
	1131	12.5841	-1.31021E-001	-2.23408E-006	0.00000E+000	-1.30965E-001	0.00000E+000	9	...........	1488.97
	1136	12.6397	-1.36023E-001	-2.27737E-006	0.00000E+000	-1.35967E-001	0.00000E+000	9	...........	1488.97
	1141	12.6952	-1.41025E-001	-2.31233E-006	0.00000E+000	-1.40968E-001	0.00000E+000	9	...........	1488.97
	1146	12.7508	-1.46027E-001	-2.36942E-006	0.00000E+000	-1.45969E-001	0.00000E+000	9	...........	1488.97
	1151	12.8064	-1.51028E-001	-2.41161E-006	0.00000E+000	-1.50971E-001	0.00000E+000	9	...........	1488.97
	1156	12.862	-1.56031E-001	-2.46463E-006	0.00000E+000	-1.55972E-001	0.00000E+000	9	...........	1488.97
	1161	12.9176	-1.61046E-001	-2.53696E-006	0.00000E+000	-1.60986E-001	0.00000E+000	9	...........	1488.97
	1166	12.9732	-1.66043E-001	-2.59134E-006	0.00000E+000	-1.65987E-001	0.00000E+000	9	...........	1488.97
	1171	13.0287	-1.71045E-001	-2.64286E-006	0.00000E+000	-1.70989E-001	0.00000E+000	9	...........	1488.97
	1176	13.0843	-1.76051E-001	-2.72297E-006	0.00000E+000	-1.75990E-001	0.00000E+000	9	...........	1488.97
	1181	13.1399	-1.81056E-001	-2.80599E-006	0.00000E+000	-1.80991E-001	0.00000E+000	9	...........	1488.97
	1186	13.1955	-1.86056E-001	-2.90250E-006	0.00000E+000	-1.85993E-001	0.00000E+000	9	...........	1488.97
	1191	13.2511	-1.91056E-001	-2.98722E-006	0.00000E+000	-1.90994E-001	0.00000E+000	9	...........	1488.97
	1196	13.3067	-1.96061E-001	-3.08830E-006	0.00000E+000	-1.95995E-001	0.00000E+000	9	...........	1488.97
	1200	13.3511	-2.00062E-001	-3.21155E-006	0.00000E+000	-1.99996E-001	0.00000E+000	9	...........	1488.97
CURVE4	TABLE
	Pt	T	Vf	Im	Vu	Sig	Ach	IERange	Over	Temp
	#	s	V vs. Ref.	A	V	V	V	#	bits	deg C
	1201	13.3622	-2.00081E-001	-7.35669E-007	0.00000E+000	-1.99996E-001	0.00000E+000	9	...........	1488.97