File: input/CV_ECSA_#2.DTA
EXPLAIN
TAG	CV
TITLE	LABEL	ECSA	Test Identifier
DATE	LABEL	11/7/2023	Date
TIME	LABEL	10:46:12	Time
NOTES	NOTES	1	Notes...

PSTAT	PSTAT	IFC1010-36108	Potentiostat
VINIT	POTEN	0.00000E+000	F	Initial E (V)
VLIMIT1	POTEN	5.00000E-001	F	Scan Limit 1 (V)
VLIMIT2	POTEN	0.00000E+000	F	Scan Limit 2 (V)
VFINAL	POTEN	0.00000E+000	F	Final E (V)
SCANRATE	QUANT	2.00000E+001	A Real Number
STEPSIZE	QUANT	2.00000E+000	Step Size (mV)
CYCLES	IQUANT	1	Cycles (#)
IMODE	SELECTOR	0	I/E Range Mode
IRANGE	QUANT	3.00000E-001	Max Current (mA)
AREA	QUANT	1.00000E+000	Sample Area (cm^2)
EQDELAY	QUANT	0.00000E+000	Equil. Time (s)
IRCOMP	SELECTOR	0	IRComp
PFCOR	QUANT	5.00000E+001	PF Corr. (ohm)
SAMPLINGMODE	SELECTOR	1	Sampling Mode
EOC	QUANT	0	Open Circuit (V)
ELECTRODETYPE	SELECTOR	0	Electrode Type
STRIPPING	TOGGLE	F	Used for Stripping
SEQUENCER	TOGGLE	TRUE	Run as Sequence
PSTATMODEL	IQUANT	64	Pstat Model
PSTATSECTION	LABEL	IFC1010-36108	Pstat Section
PSTATSERIALNO	LABEL	36108	Pstat Serial Number
CTRLMODE	IQUANT	1	Control Mode
ELECTROMETER	IQUANT	0	RE=0 or CS=1
IESTAB	IQUANT	2	I/E Stability
CASPEED	IQUANT	4	Control Amp Speed
CONVENTION	IQUANT	1	Current Convention
ICHRANGE	IQUANT	2	Ich Range
ICHRANGEMODE	TOGGLE	F	Ich Auto Range
ICHOFFSETENABLE	TOGGLE	F	Ich Offset Enable
ICHOFFSET	QUANT	0	Ich Offset (V)
ICHFILTER	IQUANT	3	Ich Filter
VCHRANGE	IQUANT	2	Vch Range
VCHRANGEMODE	TOGGLE	F	Vch Auto Range
VCHOFFSETENABLE	TOGGLE	F	Vch Offset Enable
VCHOFFSET	QUANT	0	Vch Offset (V)
VCHFILTER	IQUANT	3	Vch Filter
IERANGELOWERLIMIT	IQUANT	4	I/E Range Lower Limit
IERANGEMODE	TOGGLE	T	I/E AutoRange
IERANGE	IQUANT	9	I/E Range
ACHSELECT	IQUANT	0	Ach Select
ACHRANGE	IQUANT	2	Ach Range
ACHOFFSETENABLE	TOGGLE	F	Ach Offset Enable
ACHOFFSET	QUANT	0	Ach Offset (V)
ACHFILTER	IQUANT	1	Ach Filter
SENSECABLEID	IQUANT	13	Sense Cable ID
PWRCABLEID	IQUANT	13	Power Cable ID
DCCALDATE	LABEL	8/10/2023	DC Calibration Date
ACCALDATE	LABEL	6/3/2023	AC Calibration Date
FRAMEWORKVERSION	LABEL	7.10.1	Framework Version
INSTRUMENTVERSION	LABEL	4.80	Instrument Version
COMMVERSION	LABEL	3.10	Communications Version
CPUPLDVERSION	LABEL	2.22	CPU PLD Version
CTRLPLDVERSION	LABEL	0.00	CTRL PLD Version
PSTATPLDVERSION	LABEL	0.00	PSTAT PLD Version
CURVE1	TABLE
	Pt	T	Vf	Im	Vu	Sig	Ach	IERange	Over	Temp
	#	s	V vs. Ref.	A	V	V	V	#	bits	deg C
	0	0.1	-7.42184E-005	-2.49072E-007	0.00000E+000	3.39746E-006	0.00000E+000	9	...........	1466.71
	5	0.6	9.98280E-003	-2.39486E-008	0.00000E+000	1.00004E-002	0.00000E+000	5	...........	1466.71
	10	1.1	1.99732E-002	9.36961E-008	0.00000E+000	1.99974E-002	0.00000E+000	5	....ih..i..	1466.71
	15	1.6	2.99922E-002	1.74843E-007	0.00000E+000	2.99944E-002	0.00000E+000	6	...........	1466.71
	20	2.1	3.99983E-002	2.41112E-007	0.00000E+000	4.00039E-002	0.00000E+000	6	...........	1466.71
	25	2.6	4.99594E-002	3.00131E-007	0.00000E+000	5.00009E-002	0.00000E+000	6	...........	1466.62
	30	3.1	5.99719E-002	3.51669E-007	0.00000E+000	5.99979E-002	0.00000E+000	6	...........	1466.62
	35	3.6	6.99708E-002	4.00084E-007	0.00000E+000	6.99949E-002	0.00000E+000	6	...........	1466.71
	40	4.1	7.99782E-002	4.39040E-007	0.00000E+000	8.00044E-002	0.00000E+000	6	...........	1466.71
	45	4.6	8.99986E-002	4.76399E-007	0.00000E+000	9.00014E-002	0.00000E+000	6	...........	1466.71
	50	5.1	9.99597E-002	5.13501E-007	0.00000E+000	9.99984E-002	0.00000E+000	6	...........	1466.71
	55	5.6	1.09964E-001	5.49492E-007	0.00000E+000	1.09995E-001	0.00000E+000	6	...........	1466.71
	60	6.1	1.19984E-001	5.84420E-007	0.00000E+000	1.20005E-001	0.00000E+000	6	...........	1466.71
	65	6.6	1.29999E-001	6.20843E-007	0.00000E+000	1.30002E-001	0.00000E+000	6	...........	1466.71
	70	7.1	1.39965E-001	6.55172E-007	0.00000E+000	1.39999E-001	0.00000E+000	6	...........	1466.71
	75	7.6	1.49965E-001	6.90989E-007	0.00000E+000	1.49996E-001	0.00000E+000	6	...........	1466.71
	80	8.1	1.59980E-001	7.29689E-007	0.00000E+000	1.60005E-001	0.00000E+000	6	...........	1466.71
	85	8.6	1.69995E-001	7.70054E-007	0.00000E+000	1.70002E-001	0.00000E+000	6	...........	1466.71
	90	9.1	1.79974E-001	8.13593E-007	0.00000E+000	1.79999E-001	0.00000E+000	6	...........	1466.71
	95	9.6	1.89988E-001	8.53798E-007	0.00000E+000	1.89996E-001	0.00000E+000	6	.....h.....	1466.71
	100	10.1	1.99991E-001	9.21529E-007	0.00000E+000	2.00006E-001	0.00000E+000	7	...........	1466.71
	105	10.6	2.09987E-001	9.68182E-007	0.00000E+000	2.10003E-001	0.00000E+000	7	...........	1466.71
	110	11.1	2.19986E-001	1.01848E-006	0.00000E+000	2.20000E-001	0.00000E+000	7	...........	1466.71
	115	11.6	2.29965E-001	1.06584E-006	0.00000E+000	2.29997E-001	0.00000E+000	7	...........	1466.71
	120	12.1	2.39976E-001	1.12971E-006	0.00000E+000	2.39994E-001	0.00000E+000	7	...........	1466.71
	125	12.6	2.50007E-001	1.19710E-006	0.00000E+000	2.50003E-001	0.00000E+000	7	...........	1466.71
	130	13.1	2.59990E-001	1.26539E-006	0.00000E+000	2.60000E-001	0.00000E+000	7	...........	1466.71
	135	13.6	2.70012E-001	1.33381E-006	0.00000E+000	2.69997E-001	0.00000E+000	7	...........	1466.71
	140	14.1	2.79972E-001	1.40805E-006	0.00000E+000	2.79994E-001	0.00000E+000	7	...........	1466.71
	145	14.6	2.90012E-001	1.49310E-006	0.00000E+000	2.90004E-001	0.00000E+000	7	...........	1466.71
	150	15.1	2.99988E-001	1.58314E-006	0.00000E+000	3.00001E-001	0.00000E+000	7	...........	1466.71
	155	15.6	3.10022E-001	1.68502E-006	0.00000E+000	3.09998E-001	0.00000E+000	7	...........	1466.71
	160	16.1	3.19993E-001	1.78991E-006	0.00000E+000	3.19995E-001	0.00000E+000	7	...........	1466.71
	165	16.6	3.30015E-001	1.91208E-006	0.00000E+000	3.30004E-001	0.00000E+000	7	...........	1466.71
	170	17.1	3.40010E-001	2.04954E-006	0.00000E+000	3.40001E-001	0.00000E+000	7	...........	1466.71
	175	17.6	3.50019E-001	2.19694E-006	0.00000E+000	3.49998E-001	0.00000E+000	7	...........	1466.71
	180	18.1	3.60001E-001	2.37776E-006	0.00000E+000	3.59995E-001	0.00000E+000	7	...........	1466.71
	185	18.6	3.70011E-001	2.56008E-006	0.00000E+000	3.70005E-001	0.00000E+000	7	...........	1466.71
	190	19.1	3.80022E-001	2.77019E-006	0.00000E+000	3.80002E-001	0.00000E+000	7	...........	1466.71
	195	19.6	3.90025E-001	3.00611E-006	0.00000E+000	3.89999E-001	0.00000E+000	7	...........	1466.71
	200	20.1	4.00009E-001	3.28083E-006	0.00000E+000	3.99996E-001	0.00000E+000	7	...........	1466.71
	205	20.6	4.10013E-001	3.59698E-006	0.00000E+000	4.10005E-001	0.00000E+000	7	...........	1466.71
	210	21.1	4.19989E-001	3.97020E-006	0.00000E+000	4.20002E-001	0.00000E+000	7	...........	1466.71
	215	21.6	4.30000E-001	4.40716E-006	0.00000E+000	4.29999E-001	0.00000E+000	7	...........	1466.71
	220	22.1	4.40003E-001	4.91320E-006	0.00000E+000	4.39996E-001	0.00000E+000	7	...........	1466.71
	225	22.6	4.50009E-001	5.51993E-006	0.00000E+000	4.49993E-001	0.00000E+000	7	...........	1466.71
	230	23.1	4.59995E-001	6.23262E-006	0.00000E+000	4.60003E-001	0.00000E+000	7	...........	1466.71
	235	23.6	4.70002E-001	7.11027E-006	0.00000E+000	4.70000E-001	0.00000E+000	7	...........	1466.71
	240	24.1	4.80002E-001	8.15869E-006	0.00000E+000	4.79997E-001	0.00000E+000	7	...........	1466.71
	245	24.6	4.90019E-001	9.44519E-006	0.00000E+000	4.89994E-001	0.00000E+000	8	...........	1466.80
	250	25.1	5.00028E-001	1.09848E-005	0.00000E+000	5.00003E-001	0.00000E+000	8	...........	1466.80
	255	25.6	4.90027E-001	8.28490E-006	0.00000E+000	4.89994E-001	0.00000E+000	8	...........	1466.71
	260	26.1	4.80000E-001	6.58190E-006	0.00000E+000	4.79997E-001	0.00000E+000	7	...........	1466.71
	265	26.6	4.69999E-001	5.31448E-006	0.00000E+000	4.70000E-001	0.00000E+000	7	...........	1466.71
	270	27.1	4.59973E-001	4.32963E-006	0.00000E+000	4.60003E-001	0.00000E+000	7	...........	1466.71
	275	27.6	4.50002E-001	3.55570E-006	0.00000E+000	4.49993E-001	0.00000E+000	7	...........	1466.71
	280	28.1	4.40004E-001	2.94119E-006	0.00000E+000	4.39996E-001	0.00000E+000	7	...........	1466.71
	285	28.6	4.30002E-001	2.44635E-006	0.00000E+000	4.29999E-001	0.00000E+000	7	...........	1466.71
	290	29.1	4.19983E-001	2.05062E-006	0.00000E+000	4.20002E-001	0.00000E+000	7	...........	1466.71
	295	29.6	4.10022E-001	1.73022E-006	0.00000E+000	4.10005E-001	0.00000E+000	7	...........	1466.71
	300	30.1	4.00011E-001	1.46234E-006	0.00000E+000	3.99996E-001	0.00000E+000	7	...........	1466.71
	305	30.6	3.90027E-001	1.23777E-006	0.00000E+000	3.89999E-001	0.00000E+000	7	...........	1466.71
	310	31.1	3.80030E-001	1.04358E-006	0.00000E+000	3.80002E-001	0.00000E+000	7	...........	1466.71
	315	31.6	3.70023E-001	8.78569E-007	0.00000E+000	3.70005E-001	0.00000E+000	7	...........	1466.71
	320	32.1	3.60016E-001	7.26589E-007	0.00000E+000	3.59995E-001	0.00000E+000	6	...........	1466.71
	325	32.6	3.50001E-001	6.06561E-007	0.00000E+000	3.49998E-001	0.00000E+000	6	...........	1466.71
	330	33.1	3.40010E-001	4.96309E-007	0.00000E+000	3.40001E-001	0.00000E+000	6	...........	1466.71
	335	33.6	3.30028E-001	3.97090E-007	0.00000E+000	3.30004E-001	0.00000E+000	6	...........	1466.71
	340	34.1	3.19978E-001	3.12445E-007	0.00000E+000	3.19995E-001	0.00000E+000	6	...........	1466.71
	345	34.6	3.10011E-001	2.38177E-007	0.00000E+000	3.09998E-001	0.00000E+000	6	...........	1466.71
	350	35.1	3.00002E-001	1.63547E-007	0.00000E+000	3.00001E-001	0.00000E+000	6	...........	1466.71
	355	35.6	2.90012E-001	9.96596E-008	0.00000E+000	2.90004E-001	0.00000E+000	6	...........	1466.71
	360	36.1	2.79975E-001	5.57190E-008	0.00000E+000	2.79994E-001	0.00000E+000	5	...........	1466.71
	365	36.6	2.70018E-001	3.69767E-009	0.00000E+000	2.69997E-001	0.00000E+000	5	...........	1466.71
	370	37.1	2.59992E-001	-4.38052E-008	0.00000E+000	2.60000E-001	0.00000E+000	5	...........	1466.71
	375	37.6	2.50003E-001	-9.02886E-008	0.00000E+000	2.50003E-001	0.00000E+000	5	.....h.....	1466.62
	380	38.1	2.39975E-001	-1.43497E-007	0.00000E+000	2.39994E-001	0.00000E+000	6	...........	1466.62
	385	38.6	2.29973E-001	-1.89839E-007	0.00000E+000	2.29997E-001	0.00000E+000	6	...........	1466.35
	390	39.1	2.20006E-001	-2.25183E-007	0.00000E+000	2.20000E-001	0.00000E+000	6	...........	1466.35
	395	39.6	2.09997E-001	-2.58321E-007	0.00000E+000	2.10003E-001	0.00000E+000	6	...........	1466.62
	400	40.1	2.00008E-001	-2.95795E-007	0.00000E+000	2.00006E-001	0.00000E+000	6	...........	1466.62
	405	40.6	1.89994E-001	-3.29096E-007	0.00000E+000	1.89996E-001	0.00000E+000	6	...........	1466.62
	410	41.1	1.79997E-001	-3.61937E-007	0.00000E+000	1.79999E-001	0.00000E+000	6	...........	1466.62
	415	41.6	1.70015E-001	-3.91542E-007	0.00000E+000	1.70002E-001	0.00000E+000	6	...........	1466.71
	420	42.1	1.59994E-001	-4.24421E-007	0.00000E+000	1.60005E-001	0.00000E+000	6	...........	1466.71
	425	42.6	1.49974E-001	-4.56140E-007	0.00000E+000	1.49996E-001	0.00000E+000	6	...........	1466.71
	430	43.1	1.39985E-001	-4.83918E-007	0.00000E+000	1.39999E-001	0.00000E+000	6	...........	1466.71
	435	43.6	1.30019E-001	-5.12989E-007	0.00000E+000	1.30002E-001	0.00000E+000	6	...........	1466.71
	440	44.1	1.19991E-001	-5.44253E-007	0.00000E+000	1.20005E-001	0.00000E+000	6	...........	1466.71
	445	44.6	1.09983E-001	-5.74758E-007	0.00000E+000	1.09995E-001	0.00000E+000	6	...........	1466.71
	450	45.1	9.99753E-002	-5.96752E-007	0.00000E+000	9.99984E-002	0.00000E+000	6	...........	1466.71
	455	45.6	9.00113E-002	-6.23148E-007	0.00000E+000	9.00014E-002	0.00000E+000	6	...........	1466.71
	460	46.1	7.99983E-002	-6.50147E-007	0.00000E+000	8.00044E-002	0.00000E+000	6	...........	1466.71
	465	46.6	6.99884E-002	-6.74024E-007	0.00000E+000	6.99949E-002	0.00000E+000	6	...........	1466.71
	470	47.1	5.99936E-002	-7.04422E-007	0.00000E+000	5.99979E-002	0.00000E+000	6	...........	1466.71
	475	47.6	4.99689E-002	-7.30501E-007	0.00000E+000	5.00009E-002	0.00000E+000	6	...........	1466.71
	480	48.1	4.00008E-002	-7.62932E-007	0.00000E+000	4.00039E-002	0.00000E+000	6	...........	1466.71
	485	48.6	2.99928E-002	-7.90329E-007	0.00000E+000	2.99944E-002	0.00000E+000	6	...........	1466.71
	490	49.1	1.99792E-002	-8.21147E-007	0.00000E+000	1.99974E-002	0.00000E+000	6	...........	1466.71
	495	49.6	9.99121E-003	-8.53839E-007	0.00000E+000	1.00004E-002	0.00000E+000	6	...........	1466.71
	500	50.1	-5.66030E-005	-8.82577E-007	0.00000E+000	3.39746E-006	0.00000E+000	6	...........	1466.71
CURVE2	TABLE
	Pt	T	Vf	Im	Vu	Sig	Ach	IERange	Over	Temp
	#	s	V vs. Ref.	A	V	V	V	#	bits	deg C
	501	50.2	-5.53019E-005	-7.41783E-007	0.00000E+000	3.39746E-006	0.00000E+000	6	...........	1466.71