File: input/CV_ECSA_#2_#2.DTA
EXPLAIN
TAG	CV
TITLE	LABEL	ECSA	Test Identifier
DATE	LABEL	17.7.2024	Date
TIME	LABEL	13:19:25	Time
NOTES	NOTES	1	Notes...

PSTAT	PSTAT	IFC1010-34090	Potentiostat
VINIT	POTEN	1.00000E-001	F	A Potential (V)
VLIMIT1	POTEN	2.00000E-001	F	A Potential (V)
VLIMIT2	POTEN	1.00000E-001	F	A Potential (V)
VFINAL	POTEN	1.00000E-001	F	A Potential (V)
SCANRATE	QUANT	2.00000E+001	A Real Number
STEPSIZE	QUANT	1.00000E+000	Step Size (mV)
CYCLES	IQUANT	3	Cycles (#)
IMODE	SELECTOR	1	I/E Range Mode
IRANGE	QUANT	3.00000E-001	Max Current (mA)
AREA	QUANT	1.00000E+000	Sample Area (cm^2)
EQDELAY	QUANT	0.00000E+000	Equil. Time (s)
IRCOMP	SELECTOR	0	IRComp
PFCOR	QUANT	5.00000E+001	PF Corr. (ohm)
SAMPLINGMODE	SELECTOR	2	Sampling Mode
EOC	QUANT	0.7205974	Open Circuit (V)
ELECTRODETYPE	SELECTOR	0	Electrode Type
STRIPPING	TOGGLE	F	Used for Stripping
SEQUENCER	TOGGLE	TRUE	Run as Sequence
PSTATMODEL	IQUANT	64	Pstat Model
PSTATSECTION	LABEL	IFC1010-34090	Pstat Section
PSTATSERIALNO	LABEL	34090	Pstat Serial Number
CTRLMODE	IQUANT	1	Control Mode
ELECTROMETER	IQUANT	0	RE=0 or CS=1
IESTAB	IQUANT	2	I/E Stability
CASPEED	IQUANT	4	Control Amp Speed
CONVENTION	IQUANT	1	Current Convention
ICHRANGE	IQUANT	2	Ich Range
ICHRANGEMODE	TOGGLE	F	Ich Auto Range
ICHOFFSETENABLE	TOGGLE	F	Ich Offset Enable
ICHOFFSET	QUANT	0	Ich Offset (V)
ICHFILTER	IQUANT	3	Ich Filter
VCHRANGE	IQUANT	1	Vch Range
VCHRANGEMODE	TOGGLE	F	Vch Auto Range
VCHOFFSETENABLE	TOGGLE	F	Vch Offset Enable
VCHOFFSET	QUANT	0	Vch Offset (V)
VCHFILTER	IQUANT	3	Vch Filter
IERANGELOWERLIMIT	IQUANT	4	I/E Range Lower Limit
IERANGEMODE	TOGGLE	F	I/E AutoRange
IERANGE	IQUANT	9	I/E Range
ACHSELECT	IQUANT	0	Ach Select
ACHRANGE	IQUANT	2	Ach Range
ACHOFFSETENABLE	TOGGLE	F	Ach Offset Enable
ACHOFFSET	QUANT	0	Ach Offset (V)
ACHFILTER	IQUANT	1	Ach Filter
SENSECABLEID	IQUANT	13	Sense Cable ID
PWRCABLEID	IQUANT	13	Power Cable ID
DCCALDATE	LABEL	1/30/2024	DC Calibration Date
ACCALDATE	LABEL	1/8/2024	AC Calibration Date
FRAMEWORKVERSION	LABEL	7.10.3	Framework Version
INSTRUMENTVERSION	LABEL	4.91	Instrument Version
COMMVERSION	LABEL	3.10	Communications Version
CPUPLDVERSION	LABEL	2.22	CPU PLD Version
CTRLPLDVERSION	LABEL	0.00	CTRL PLD Version
PSTATPLDVERSION	LABEL	0.00	PSTAT PLD Version
CURVE1	TABLE
	Pt	T	Vf	Im	Vu	Sig	Ach	IERange	Over	Temp
	#	s	V vs. Ref.	A	V	V	V	#	bits	deg C
	0	0.05	1.00292E-001	-2.01604E-005	0.00000E+000	9.99950E-002	0.00000E+000	9	...........	1467.88
	2	0.15	1.02289E-001	-1.88523E-005	0.00000E+000	1.01995E-001	0.00000E+000	9	...........	1467.88
	4	0.25	1.04287E-001	-1.86625E-005	0.00000E+000	1.03995E-001	0.00000E+000	9	...........	1467.80
	6	0.35	1.06289E-001	-1.84941E-005	0.00000E+000	1.05994E-001	0.00000E+000	9	...........	1467.61
	8	0.45	1.08289E-001	-1.83581E-005	0.00000E+000	1.07994E-001	0.00000E+000	9	...........	1467.61
	10	0.55	1.10292E-001	-1.82225E-005	0.00000E+000	1.09994E-001	0.00000E+000	9	...........	1467.61
	12	0.65	1.12292E-001	-1.80911E-005	0.00000E+000	1.11994E-001	0.00000E+000	9	...........	1467.61
	14	0.75	1.14306E-001	-1.79707E-005	0.00000E+000	1.14006E-001	0.00000E+000	9	...........	1467.61
	16	0.85	1.16306E-001	-1.78525E-005	0.00000E+000	1.16006E-001	0.00000E+000	9	...........	1467.61
	18	0.95	1.18306E-001	-1.77393E-005	0.00000E+000	1.18006E-001	0.00000E+000	9	...........	1467.61
	20	1.05	1.20308E-001	-1.76309E-005	0.00000E+000	1.20005E-001	0.00000E+000	9	...........	1467.61
	22	1.15	1.22308E-001	-1.75186E-005	0.00000E+000	1.22005E-001	0.00000E+000	9	...........	1467.61
	24	1.25	1.24309E-001	-1.74165E-005	0.00000E+000	1.24005E-001	0.00000E+000	9	...........	1467.70
	26	1.35	1.26310E-001	-1.73165E-005	0.00000E+000	1.26005E-001	0.00000E+000	9	...........	1467.88
	28	1.45	1.28313E-001	-1.72205E-005	0.00000E+000	1.28005E-001	0.00000E+000	9	...........	1467.88
	30	1.55	1.30311E-001	-1.71247E-005	0.00000E+000	1.30004E-001	0.00000E+000	9	...........	1467.88
	32	1.65	1.32315E-001	-1.70288E-005	0.00000E+000	1.32004E-001	0.00000E+000	9	...........	1467.88
	34	1.75	1.34314E-001	-1.69342E-005	0.00000E+000	1.34004E-001	0.00000E+000	9	...........	1467.88
	36	1.85	1.36314E-001	-1.68521E-005	0.00000E+000	1.36004E-001	0.00000E+000	9	...........	1467.88
	38	1.95	1.38315E-001	-1.67602E-005	0.00000E+000	1.38004E-001	0.00000E+000	9	...........	1467.88
	40	2.05	1.40317E-001	-1.66727E-005	0.00000E+000	1.40003E-001	0.00000E+000	9	...........	1467.88
	42	2.15	1.42316E-001	-1.65908E-005	0.00000E+000	1.42003E-001	0.00000E+000	9	...........	1467.88
	44	2.25	1.44314E-001	-1.65031E-005	0.00000E+000	1.44003E-001	0.00000E+000	9	...........	1467.88
	46	2.35	1.46317E-001	-1.64257E-005	0.00000E+000	1.46003E-001	0.00000E+000	9	...........	1467.88
	48	2.45	1.48316E-001	-1.63465E-005	0.00000E+000	1.48003E-001	0.00000E+000	9	...........	1467.88
	50	2.55	1.50313E-001	-1.62645E-005	0.00000E+000	1.50002E-001	0.00000E+000	9	...........	1467.88
	52	2.65	1.52312E-001	-1.61809E-005	0.00000E+000	1.52002E-001	0.00000E+000	9	...........	1467.88
	54	2.75	1.54316E-001	-1.61034E-005	0.00000E+000	1.54002E-001	0.00000E+000	9	...........	1467.88
	56	2.85	1.56317E-001	-1.60311E-005	0.00000E+000	1.56002E-001	0.00000E+000	9	...........	1467.88
	58	2.95	1.58316E-001	-1.59536E-005	0.00000E+000	1.58002E-001	0.00000E+000	9	...........	1467.88
	60	3.05	1.60319E-001	-1.58805E-005	0.00000E+000	1.60001E-001	0.00000E+000	9	...........	1467.88
	62	3.15	1.62316E-001	-1.58100E-005	0.00000E+000	1.62001E-001	0.00000E+000	9	...........	1467.88
	64	3.25	1.64318E-001	-1.57359E-005	0.00000E+000	1.64001E-001	0.00000E+000	9	...........	1467.76
	66	3.35	1.66320E-001	-1.56593E-005	0.00000E+000	1.66001E-001	0.00000E+000	9	...........	1467.52
	68	3.45	1.68318E-001	-1.55901E-005	0.00000E+000	1.68001E-001	0.00000E+000	9	...........	1467.52
	70	3.55	1.70322E-001	-1.55227E-005	0.00000E+000	1.70000E-001	0.00000E+000	9	...........	1467.52
	72	3.65	1.72323E-001	-1.54547E-005	0.00000E+000	1.72000E-001	0.00000E+000	9	...........	1467.52
	74	3.75	1.74324E-001	-1.53881E-005	0.00000E+000	1.74000E-001	0.00000E+000	9	...........	1467.52
	76	3.85	1.76320E-001	-1.53230E-005	0.00000E+000	1.76000E-001	0.00000E+000	9	...........	1467.52
	78	3.95	1.78325E-001	-1.52517E-005	0.00000E+000	1.78000E-001	0.00000E+000	9	...........	1467.52
	80	4.05	1.80326E-001	-1.51831E-005	0.00000E+000	1.79999E-001	0.00000E+000	9	...........	1467.52
	82	4.15	1.82329E-001	-1.51221E-005	0.00000E+000	1.81999E-001	0.00000E+000	9	...........	1467.52
	84	4.25	1.84327E-001	-1.50518E-005	0.00000E+000	1.83999E-001	0.00000E+000	9	...........	1467.49
	86	4.35	1.86329E-001	-1.49853E-005	0.00000E+000	1.85999E-001	0.00000E+000	9	...........	1467.43
	88	4.45	1.88329E-001	-1.49158E-005	0.00000E+000	1.87999E-001	0.00000E+000	9	...........	1467.43
	90	4.55	1.90330E-001	-1.48486E-005	0.00000E+000	1.89998E-001	0.00000E+000	9	...........	1467.43
	92	4.65	1.92331E-001	-1.47921E-005	0.00000E+000	1.91998E-001	0.00000E+000	9	...........	1467.43
	94	4.75	1.94328E-001	-1.47200E-005	0.00000E+000	1.93998E-001	0.00000E+000	9	...........	1467.43
	96	4.85	1.96330E-001	-1.46491E-005	0.00000E+000	1.95998E-001	0.00000E+000	9	...........	1467.43
	98	4.95	1.98330E-001	-1.45871E-005	0.00000E+000	1.97998E-001	0.00000E+000	9	...........	1467.43
	100	5.05	2.00333E-001	-1.45240E-005	0.00000E+000	1.99997E-001	0.00000E+000	9	...........	1467.43
	102	5.15	1.98339E-001	-1.66888E-005	0.00000E+000	1.97998E-001	0.00000E+000	9	...........	1467.43
	104	5.25	1.96340E-001	-1.70049E-005	0.00000E+000	1.95998E-001	0.00000E+000	9	...........	1467.62
	106	5.35	1.94337E-001	-1.72479E-005	0.00000E+000	1.93998E-001	0.00000E+000	9	...........	1467.97
	108	5.45	1.92339E-001	-1.74490E-005	0.00000E+000	1.91998E-001	0.00000E+000	9	...........	1467.97
	110	5.55	1.90336E-001	-1.76259E-005	0.00000E+000	1.89998E-001	0.00000E+000	9	...........	1467.97
	112	5.65	1.88336E-001	-1.77864E-005	0.00000E+000	1.87999E-001	0.00000E+000	9	...........	1467.97
	114	5.75	1.86338E-001	-1.79180E-005	0.00000E+000	1.85999E-001	0.00000E+000	9	...........	1467.97
	116	5.85	1.84336E-001	-1.80494E-005	0.00000E+000	1.83999E-001	0.00000E+000	9	...........	1467.97
	118	5.95	1.82336E-001	-1.81747E-005	0.00000E+000	1.81999E-001	0.00000E+000	9	...........	1467.97
	120	6.05	1.80335E-001	-1.82851E-005	0.00000E+000	1.79999E-001	0.00000E+000	9	...........	1467.97
	122	6.15	1.78334E-001	-1.83994E-005	0.00000E+000	1.78000E-001	0.00000E+000	9	...........	1467.97
	124	6.25	1.76332E-001	-1.85020E-005	0.00000E+000	1.76000E-001	0.00000E+000	9	...........	1467.84
	126	6.35	1.74332E-001	-1.85979E-005	0.00000E+000	1.74000E-001	0.00000E+000	9	...........	1467.61
	128	6.45	1.72331E-001	-1.86897E-005	0.00000E+000	1.72000E-001	0.00000E+000	9	...........	1467.61
	130	6.55	1.70333E-001	-1.87833E-005	0.00000E+000	1.70000E-001	0.00000E+000	9	...........	1467.61
	132	6.65	1.68329E-001	-1.88752E-005	0.00000E+000	1.68001E-001	0.00000E+000	9	...........	1467.61
	134	6.75	1.66330E-001	-1.89606E-005	0.00000E+000	1.66001E-001	0.00000E+000	9	...........	1467.61
	136	6.85	1.64329E-001	-1.90438E-005	0.00000E+000	1.64001E-001	0.00000E+000	9	...........	1467.61
	138	6.95	1.62326E-001	-1.91290E-005	0.00000E+000	1.62001E-001	0.00000E+000	9	...........	1467.61
	140	7.05	1.60328E-001	-1.92101E-005	0.00000E+000	1.60001E-001	0.00000E+000	9	...........	1467.61
	142	7.15	1.58324E-001	-1.92900E-005	0.00000E+000	1.58002E-001	0.00000E+000	9	...........	1467.61
	144	7.25	1.56325E-001	-1.93694E-005	0.00000E+000	1.56002E-001	0.00000E+000	9	...........	1467.71
	146	7.35	1.54325E-001	-1.94483E-005	0.00000E+000	1.54002E-001	0.00000E+000	9	...........	1467.88
	148	7.45	1.52322E-001	-1.95306E-005	0.00000E+000	1.52002E-001	0.00000E+000	9	...........	1467.88
	150	7.55	1.50323E-001	-1.96047E-005	0.00000E+000	1.50002E-001	0.00000E+000	9	...........	1467.88
	152	7.65	1.48324E-001	-1.96834E-005	0.00000E+000	1.48003E-001	0.00000E+000	9	...........	1467.88
	154	7.75	1.46326E-001	-1.97593E-005	0.00000E+000	1.46003E-001	0.00000E+000	9	...........	1467.88
	156	7.85	1.44322E-001	-1.98293E-005	0.00000E+000	1.44003E-001	0.00000E+000	9	...........	1467.88
	158	7.95	1.42324E-001	-1.99054E-005	0.00000E+000	1.42003E-001	0.00000E+000	9	...........	1467.88
	160	8.05	1.40323E-001	-1.99732E-005	0.00000E+000	1.40003E-001	0.00000E+000	9	...........	1467.88
	162	8.15	1.38324E-001	-2.00480E-005	0.00000E+000	1.38004E-001	0.00000E+000	9	...........	1467.88
	164	8.25	1.36321E-001	-2.01205E-005	0.00000E+000	1.36004E-001	0.00000E+000	9	...........	1467.78
	166	8.35	1.34322E-001	-2.01925E-005	0.00000E+000	1.34004E-001	0.00000E+000	9	...........	1467.61
	168	8.45	1.32322E-001	-2.02686E-005	0.00000E+000	1.32004E-001	0.00000E+000	9	...........	1467.61
	170	8.55	1.30319E-001	-2.03415E-005	0.00000E+000	1.30004E-001	0.00000E+000	9	...........	1467.61
	172	8.65	1.28322E-001	-2.04144E-005	0.00000E+000	1.28005E-001	0.00000E+000	9	...........	1467.61
	174	8.75	1.26319E-001	-2.04874E-005	0.00000E+000	1.26005E-001	0.00000E+000	9	...........	1467.61
	176	8.85	1.24319E-001	-2.05558E-005	0.00000E+000	1.24005E-001	0.00000E+000	9	...........	1467.61
	178	8.95	1.22317E-001	-2.06290E-005	0.00000E+000	1.22005E-001	0.00000E+000	9	...........	1467.61
	180	9.05	1.20318E-001	-2.07050E-005	0.00000E+000	1.20005E-001	0.00000E+000	9	...........	1467.61
	182	9.15	1.18314E-001	-2.07796E-005	0.00000E+000	1.18006E-001	0.00000E+000	9	...........	1467.61
	184	9.25	1.16314E-001	-2.08516E-005	0.00000E+000	1.16006E-001	0.00000E+000	9	...........	1467.72
	186	9.35	1.14312E-001	-2.09276E-005	0.00000E+000	1.14006E-001	0.00000E+000	9	...........	1467.88
	188	9.45	1.12298E-001	-2.10222E-005	0.00000E+000	1.11994E-001	0.00000E+000	9	...........	1467.88
	190	9.55	1.10301E-001	-2.10818E-005	0.00000E+000	1.09994E-001	0.00000E+000	9	...........	1467.88
	192	9.65	1.08298E-001	-2.11590E-005	0.00000E+000	1.07994E-001	0.00000E+000	9	...........	1467.88
	194	9.75	1.06299E-001	-2.12341E-005	0.00000E+000	1.05994E-001	0.00000E+000	9	...........	1467.88
	196	9.85	1.04297E-001	-2.13086E-005	0.00000E+000	1.03995E-001	0.00000E+000	9	...........	1467.88
	198	9.95	1.02298E-001	-2.13841E-005	0.00000E+000	1.01995E-001	0.00000E+000	9	...........	1467.88
	200	10.05	1.00296E-001	-2.14627E-005	0.00000E+000	9.99950E-002	0.00000E+000	9	...........	1467.88
CURVE2	TABLE
	Pt	T	Vf	Im	Vu	Sig	Ach	IERange	Over	Temp
	#	s	V vs. Ref.	A	V	V	V	#	bits	deg C
	201	10.1	1.01288E-001	-1.95053E-005	0.00000E+000	1.00995E-001	0.00000E+000	9	...........	1467.88
	203	10.2	1.03289E-001	-1.92229E-005	0.00000E+000	1.02995E-001	0.00000E+000	9	...........	1467.88
	205	10.3	1.05288E-001	-1.90170E-005	0.00000E+000	1.04994E-001	0.00000E+000	9	...........	1467.70
	207	10.4	1.07290E-001	-1.88335E-005	0.00000E+000	1.06994E-001	0.00000E+000	9	...........	1467.70
	209	10.5	1.09291E-001	-1.86673E-005	0.00000E+000	1.08994E-001	0.00000E+000	9	...........	1467.70
	211	10.6	1.11290E-001	-1.85111E-005	0.00000E+000	1.10994E-001	0.00000E+000	9	...........	1467.70
	213	10.7	1.13304E-001	-1.83527E-005	0.00000E+000	1.13006E-001	0.00000E+000	9	...........	1467.70
	215	10.8	1.15307E-001	-1.82243E-005	0.00000E+000	1.15006E-001	0.00000E+000	9	...........	1467.70
	217	10.9	1.17307E-001	-1.80863E-005	0.00000E+000	1.17006E-001	0.00000E+000	9	...........	1467.70
	219	11	1.19309E-001	-1.79627E-005	0.00000E+000	1.19006E-001	0.00000E+000	9	...........	1467.70
	221	11.1	1.21310E-001	-1.78394E-005	0.00000E+000	1.21005E-001	0.00000E+000	9	...........	1467.70
	223	11.2	1.23310E-001	-1.77207E-005	0.00000E+000	1.23005E-001	0.00000E+000	9	...........	1467.70
	225	11.3	1.25311E-001	-1.76016E-005	0.00000E+000	1.25005E-001	0.00000E+000	9	...........	1467.88
	227	11.4	1.27311E-001	-1.74952E-005	0.00000E+000	1.27005E-001	0.00000E+000	9	...........	1467.88
	229	11.5	1.29314E-001	-1.73876E-005	0.00000E+000	1.29005E-001	0.00000E+000	9	...........	1467.88
	231	11.6	1.31313E-001	-1.72854E-005	0.00000E+000	1.31004E-001	0.00000E+000	9	...........	1467.88
	233	11.7	1.33314E-001	-1.71842E-005	0.00000E+000	1.33004E-001	0.00000E+000	9	...........	1467.88
	235	11.8	1.35314E-001	-1.70804E-005	0.00000E+000	1.35004E-001	0.00000E+000	9	...........	1467.88
	237	11.9	1.37315E-001	-1.69833E-005	0.00000E+000	1.37004E-001	0.00000E+000	9	...........	1467.88
	239	12	1.39314E-001	-1.68913E-005	0.00000E+000	1.39004E-001	0.00000E+000	9	...........	1467.88
	241	12.1	1.41316E-001	-1.67934E-005	0.00000E+000	1.41003E-001	0.00000E+000	9	...........	1467.88
	243	12.2	1.43314E-001	-1.67012E-005	0.00000E+000	1.43003E-001	0.00000E+000	9	...........	1467.88
	245	12.3	1.45315E-001	-1.66139E-005	0.00000E+000	1.45003E-001	0.00000E+000	9	...........	1467.70
	247	12.4	1.47317E-001	-1.65303E-005	0.00000E+000	1.47003E-001	0.00000E+000	9	...........	1467.70
	249	12.5	1.49316E-001	-1.64440E-005	0.00000E+000	1.49003E-001	0.00000E+000	9	...........	1467.70
	251	12.6	1.51315E-001	-1.63589E-005	0.00000E+000	1.51002E-001	0.00000E+000	9	...........	1467.70
	253	12.7	1.53312E-001	-1.62715E-005	0.00000E+000	1.53002E-001	0.00000E+000	9	...........	1467.70
	255	12.8	1.55315E-001	-1.61933E-005	0.00000E+000	1.55002E-001	0.00000E+000	9	...........	1467.70
	257	12.9	1.57316E-001	-1.61106E-005	0.00000E+000	1.57002E-001	0.00000E+000	9	...........	1467.70
	259	13	1.59319E-001	-1.60378E-005	0.00000E+000	1.59001E-001	0.00000E+000	9	...........	1467.70
	261	13.1	1.61320E-001	-1.59591E-005	0.00000E+000	1.61001E-001	0.00000E+000	9	...........	1467.70
	263	13.2	1.63318E-001	-1.58818E-005	0.00000E+000	1.63001E-001	0.00000E+000	9	...........	1467.70
	265	13.3	1.65321E-001	-1.58044E-005	0.00000E+000	1.65001E-001	0.00000E+000	9	...........	1467.88
	267	13.4	1.67320E-001	-1.57267E-005	0.00000E+000	1.67001E-001	0.00000E+000	9	...........	1467.88
	269	13.5	1.69322E-001	-1.56553E-005	0.00000E+000	1.69000E-001	0.00000E+000	9	...........	1467.88
	271	13.6	1.71322E-001	-1.55824E-005	0.00000E+000	1.71000E-001	0.00000E+000	9	...........	1467.88
	273	13.7	1.73325E-001	-1.55091E-005	0.00000E+000	1.73000E-001	0.00000E+000	9	...........	1467.88
	275	13.8	1.75321E-001	-1.54377E-005	0.00000E+000	1.75000E-001	0.00000E+000	9	...........	1467.88
	277	13.9	1.77324E-001	-1.53606E-005	0.00000E+000	1.77000E-001	0.00000E+000	9	...........	1467.88
	279	14	1.79328E-001	-1.52877E-005	0.00000E+000	1.78999E-001	0.00000E+000	9	...........	1467.88
	281	14.1	1.81326E-001	-1.52170E-005	0.00000E+000	1.80999E-001	0.00000E+000	9	...........	1467.88
	283	14.2	1.83329E-001	-1.51433E-005	0.00000E+000	1.82999E-001	0.00000E+000	9	...........	1467.88
	285	14.3	1.85326E-001	-1.50730E-005	0.00000E+000	1.84999E-001	0.00000E+000	9	...........	1467.70
	287	14.4	1.87330E-001	-1.50053E-005	0.00000E+000	1.86999E-001	0.00000E+000	9	...........	1467.70
	289	14.5	1.89325E-001	-1.49321E-005	0.00000E+000	1.88998E-001	0.00000E+000	9	...........	1467.70
	291	14.6	1.91331E-001	-1.48669E-005	0.00000E+000	1.90998E-001	0.00000E+000	9	...........	1467.70
	293	14.7	1.93331E-001	-1.47921E-005	0.00000E+000	1.92998E-001	0.00000E+000	9	...........	1467.70
	295	14.8	1.95330E-001	-1.47238E-005	0.00000E+000	1.94998E-001	0.00000E+000	9	...........	1467.70
	297	14.9	1.97332E-001	-1.46615E-005	0.00000E+000	1.96998E-001	0.00000E+000	9	...........	1467.70
	299	15	1.99331E-001	-1.45888E-005	0.00000E+000	1.98997E-001	0.00000E+000	9	...........	1467.70
	301	15.1	1.99342E-001	-1.64774E-005	0.00000E+000	1.98997E-001	0.00000E+000	9	...........	1467.70
	303	15.2	1.97340E-001	-1.68519E-005	0.00000E+000	1.96998E-001	0.00000E+000	9	...........	1467.70
[...]
	431	21.6	1.31313E-001	-1.72732E-005	0.00000E+000	1.31004E-001	0.00000E+000	9	...........	1467.43
	433	21.7	1.33313E-001	-1.71688E-005	0.00000E+000	1.33004E-001	0.00000E+000	9	...........	1467.43
	435	21.8	1.35314E-001	-1.70646E-005	0.00000E+000	1.35004E-001	0.00000E+000	9	...........	1467.43
	437	21.9	1.37314E-001	-1.69638E-005	0.00000E+000	1.37004E-001	0.00000E+000	9	...........	1467.43
	439	22	1.39315E-001	-1.68654E-005	0.00000E+000	1.39004E-001	0.00000E+000	9	...........	1467.43
	441	22.1	1.41317E-001	-1.67704E-005	0.00000E+000	1.41003E-001	0.00000E+000	9	...........	1467.43
	443	22.2	1.43314E-001	-1.66824E-005	0.00000E+000	1.43003E-001	0.00000E+000	9	...........	1467.43
	445	22.3	1.45316E-001	-1.65884E-005	0.00000E+000	1.45003E-001	0.00000E+000	9	...........	1467.88
	447	22.4	1.47316E-001	-1.65018E-005	0.00000E+000	1.47003E-001	0.00000E+000	9	...........	1467.88
	449	22.5	1.49317E-001	-1.64172E-005	0.00000E+000	1.49003E-001	0.00000E+000	9	...........	1467.88
	451	22.6	1.51314E-001	-1.63289E-005	0.00000E+000	1.51002E-001	0.00000E+000	9	...........	1467.88
	453	22.7	1.53315E-001	-1.62446E-005	0.00000E+000	1.53002E-001	0.00000E+000	9	...........	1467.88
	455	22.8	1.55316E-001	-1.61616E-005	0.00000E+000	1.55002E-001	0.00000E+000	9	...........	1467.88
	457	22.9	1.57314E-001	-1.60794E-005	0.00000E+000	1.57002E-001	0.00000E+000	9	...........	1467.88
	459	23	1.59317E-001	-1.60016E-005	0.00000E+000	1.59001E-001	0.00000E+000	9	...........	1467.88
	461	23.1	1.61317E-001	-1.59214E-005	0.00000E+000	1.61001E-001	0.00000E+000	9	...........	1467.88
	463	23.2	1.63318E-001	-1.58424E-005	0.00000E+000	1.63001E-001	0.00000E+000	9	...........	1467.88
	465	23.3	1.65322E-001	-1.57658E-005	0.00000E+000	1.65001E-001	0.00000E+000	9	...........	1467.43
	467	23.4	1.67321E-001	-1.56883E-005	0.00000E+000	1.67001E-001	0.00000E+000	9	...........	1467.43
	469	23.5	1.69322E-001	-1.56195E-005	0.00000E+000	1.69000E-001	0.00000E+000	9	...........	1467.43
	471	23.6	1.71323E-001	-1.55428E-005	0.00000E+000	1.71000E-001	0.00000E+000	9	...........	1467.43
	473	23.7	1.73323E-001	-1.54671E-005	0.00000E+000	1.73000E-001	0.00000E+000	9	...........	1467.43
	475	23.8	1.75322E-001	-1.53890E-005	0.00000E+000	1.75000E-001	0.00000E+000	9	...........	1467.43
	477	23.9	1.77324E-001	-1.53165E-005	0.00000E+000	1.77000E-001	0.00000E+000	9	...........	1467.43
	479	24	1.79329E-001	-1.52404E-005	0.00000E+000	1.78999E-001	0.00000E+000	9	...........	1467.43
	481	24.1	1.81327E-001	-1.51716E-005	0.00000E+000	1.80999E-001	0.00000E+000	9	...........	1467.43
	483	24.2	1.83329E-001	-1.50953E-005	0.00000E+000	1.82999E-001	0.00000E+000	9	...........	1467.43
	485	24.3	1.85327E-001	-1.50210E-005	0.00000E+000	1.84999E-001	0.00000E+000	9	...........	1467.88
	487	24.4	1.87329E-001	-1.49493E-005	0.00000E+000	1.86999E-001	0.00000E+000	9	...........	1467.88
	489	24.5	1.89327E-001	-1.48780E-005	0.00000E+000	1.88998E-001	0.00000E+000	9	...........	1467.88
	491	24.6	1.91331E-001	-1.48075E-005	0.00000E+000	1.90998E-001	0.00000E+000	9	...........	1467.88
	493	24.7	1.93333E-001	-1.47362E-005	0.00000E+000	1.92998E-001	0.00000E+000	9	...........	1467.88
	495	24.8	1.95330E-001	-1.46638E-005	0.00000E+000	1.94998E-001	0.00000E+000	9	...........	1467.88
	497	24.9	1.97333E-001	-1.45969E-005	0.00000E+000	1.96998E-001	0.00000E+000	9	...........	1467.88
	499	25	1.99333E-001	-1.45238E-005	0.00000E+000	1.98997E-001	0.00000E+000	9	...........	1467.88
	501	25.1	1.99344E-001	-1.64009E-005	0.00000E+000	1.98997E-001	0.00000E+000	9	...........	1467.88
	503	25.2	1.97341E-001	-1.67753E-005	0.00000E+000	1.96998E-001	0.00000E+000	9	...........	1467.88
	505	25.3	1.95340E-001	-1.70305E-005	0.00000E+000	1.94998E-001	0.00000E+000	9	...........	1467.43
	507	25.4	1.93341E-001	-1.72374E-005	0.00000E+000	1.92998E-001	0.00000E+000	9	...........	1467.43
	509	25.5	1.91339E-001	-1.74175E-005	0.00000E+000	1.90998E-001	0.00000E+000	9	...........	1467.43
	511	25.6	1.89335E-001	-1.75759E-005	0.00000E+000	1.88998E-001	0.00000E+000	9	...........	1467.43
	513	25.7	1.87337E-001	-1.77152E-005	0.00000E+000	1.86999E-001	0.00000E+000	9	...........	1467.43
	515	25.8	1.85337E-001	-1.78476E-005	0.00000E+000	1.84999E-001	0.00000E+000	9	...........	1467.43
	517	25.9	1.83337E-001	-1.79704E-005	0.00000E+000	1.82999E-001	0.00000E+000	9	...........	1467.43
	519	26	1.81335E-001	-1.80861E-005	0.00000E+000	1.80999E-001	0.00000E+000	9	...........	1467.43
	521	26.1	1.79335E-001	-1.82007E-005	0.00000E+000	1.78999E-001	0.00000E+000	9	...........	1467.43
	523	26.2	1.77332E-001	-1.83119E-005	0.00000E+000	1.77000E-001	0.00000E+000	9	...........	1467.43
	525	26.3	1.75332E-001	-1.84057E-005	0.00000E+000	1.75000E-001	0.00000E+000	9	...........	1467.97
	527	26.4	1.73334E-001	-1.84977E-005	0.00000E+000	1.73000E-001	0.00000E+000	9	...........	1467.97
	529	26.5	1.71332E-001	-1.85923E-005	0.00000E+000	1.71000E-001	0.00000E+000	9	...........	1467.97
	531	26.6	1.69330E-001	-1.86916E-005	0.00000E+000	1.69000E-001	0.00000E+000	9	...........	1467.97
	533	26.7	1.67328E-001	-1.87723E-005	0.00000E+000	1.67001E-001	0.00000E+000	9	...........	1467.97
	535	26.8	1.65328E-001	-1.88622E-005	0.00000E+000	1.65001E-001	0.00000E+000	9	...........	1467.97
	537	26.9	1.63327E-001	-1.89473E-005	0.00000E+000	1.63001E-001	0.00000E+000	9	...........	1467.97
	539	27	1.61328E-001	-1.90277E-005	0.00000E+000	1.61001E-001	0.00000E+000	9	...........	1467.97
	541	27.1	1.59327E-001	-1.91127E-005	0.00000E+000	1.59001E-001	0.00000E+000	9	...........	1467.97
	543	27.2	1.57323E-001	-1.91926E-005	0.00000E+000	1.57002E-001	0.00000E+000	9	...........	1467.97
	545	27.3	1.55325E-001	-1.92697E-005	0.00000E+000	1.55002E-001	0.00000E+000	9	...........	1467.43
	547	27.4	1.53323E-001	-1.93467E-005	0.00000E+000	1.53002E-001	0.00000E+000	9	...........	1467.43
	549	27.5	1.51324E-001	-1.94235E-005	0.00000E+000	1.51002E-001	0.00000E+000	9	...........	1467.43
	551	27.6	1.49326E-001	-1.94936E-005	0.00000E+000	1.49003E-001	0.00000E+000	9	...........	1467.43
	553	27.7	1.47327E-001	-1.95773E-005	0.00000E+000	1.47003E-001	0.00000E+000	9	...........	1467.43
	555	27.8	1.45325E-001	-1.96515E-005	0.00000E+000	1.45003E-001	0.00000E+000	9	...........	1467.43
	557	27.9	1.43320E-001	-1.97327E-005	0.00000E+000	1.43003E-001	0.00000E+000	9	...........	1467.43
	559	28	1.41324E-001	-1.98036E-005	0.00000E+000	1.41003E-001	0.00000E+000	9	...........	1467.43
	561	28.1	1.39323E-001	-1.98732E-005	0.00000E+000	1.39004E-001	0.00000E+000	9	...........	1467.43
	563	28.2	1.37323E-001	-1.99525E-005	0.00000E+000	1.37004E-001	0.00000E+000	9	...........	1467.43
	565	28.3	1.35323E-001	-2.00204E-005	0.00000E+000	1.35004E-001	0.00000E+000	9	...........	1467.88
	567	28.4	1.33321E-001	-2.01040E-005	0.00000E+000	1.33004E-001	0.00000E+000	9	...........	1467.88
	569	28.5	1.31320E-001	-2.01804E-005	0.00000E+000	1.31004E-001	0.00000E+000	9	...........	1467.88
	571	28.6	1.29321E-001	-2.02532E-005	0.00000E+000	1.29005E-001	0.00000E+000	9	...........	1467.88
	573	28.7	1.27317E-001	-2.03274E-005	0.00000E+000	1.27005E-001	0.00000E+000	9	...........	1467.88
	575	28.8	1.25317E-001	-2.04004E-005	0.00000E+000	1.25005E-001	0.00000E+000	9	...........	1467.88
	577	28.9	1.23320E-001	-2.04699E-005	0.00000E+000	1.23005E-001	0.00000E+000	9	...........	1467.88
	579	29	1.21317E-001	-2.05485E-005	0.00000E+000	1.21005E-001	0.00000E+000	9	...........	1467.88
	581	29.1	1.19318E-001	-2.06214E-005	0.00000E+000	1.19006E-001	0.00000E+000	9	...........	1467.88
	583	29.2	1.17313E-001	-2.06981E-005	0.00000E+000	1.17006E-001	0.00000E+000	9	...........	1467.88
	585	29.3	1.15313E-001	-2.07728E-005	0.00000E+000	1.15006E-001	0.00000E+000	9	...........	1467.43
	587	29.4	1.13314E-001	-2.08495E-005	0.00000E+000	1.13006E-001	0.00000E+000	9	...........	1467.43
	589	29.5	1.11297E-001	-2.09264E-005	0.00000E+000	1.10994E-001	0.00000E+000	9	...........	1467.43
	591	29.6	1.09301E-001	-2.10058E-005	0.00000E+000	1.08994E-001	0.00000E+000	9	...........	1467.43
	593	29.7	1.07298E-001	-2.10795E-005	0.00000E+000	1.06994E-001	0.00000E+000	9	...........	1467.43
	595	29.8	1.05297E-001	-2.11629E-005	0.00000E+000	1.04994E-001	0.00000E+000	9	...........	1467.43
	597	29.9	1.03297E-001	-2.12377E-005	0.00000E+000	1.02995E-001	0.00000E+000	9	...........	1467.43
	599	30	1.01298E-001	-2.13169E-005	0.00000E+000	1.00995E-001	0.00000E+000	9	...........	1467.43
	600	30.05	1.00297E-001	-2.13847E-005	0.00000E+000	9.99950E-002	0.00000E+000	9	...........	1467.43
CURVE4	TABLE
	Pt	T	Vf	Im	Vu	Sig	Ach	IERange	Over	Temp
	#	s	V vs. Ref.	A	V	V	V	#	bits	deg C
	601	30.1	1.00293E-001	-2.04052E-005	0.00000E+000	9.99950E-002	0.00000E+000	9	...........	1467.43