File: input/HER_POWROT_#1_#1.DTA
EXPLAIN
TAG	LSV
TITLE	LABEL	POWROT	Test Identifier
DATE	LABEL	26.6.2024	Date
TIME	LABEL	10:14:39	Time
NOTES	NOTES	1	Notes...

PSTAT	PSTAT	IFC1010-36108	Potentiostat
VINIT	POTEN	-8.00000E-001	F	Initial E (V)
VFINAL	POTEN	0.00000E+000	F	Final E (V)
SCANRATE	QUANT	4.99999E+000	Scan Rate (mV/s)
STEPSIZE	QUANT	1.00000E+000	Step Size (mV)
IMODE	SELECTOR	0	I/E Range Mode
IRANGE	QUANT	3.00000E+001	Max Current (mA)
AREA	QUANT	1.00000E+000	Sample Area (cm^2)
EQDELAY	QUANT	0.00000E+000	Equil. Time (s)
IRCOMP	SELECTOR	0	IRComp
PFCOR	QUANT	5.00000E+001	PF Corr. (ohm)
SAMPLINGMODE	SELECTOR	1	Sampling Mode
EOC	QUANT	0.4457435	Open Circuit (V)
ELECTRODETYPE	SELECTOR	0	Electrode Type
STRIPPING	TOGGLE	F	Used for Stripping
SEQUENCER	TOGGLE	TRUE	Run as Sequence
PSTATMODEL	IQUANT	64	Pstat Model
PSTATSECTION	LABEL	IFC1010-36108	Pstat Section
PSTATSERIALNO	LABEL	36108	Pstat Serial Number
CTRLMODE	IQUANT	1	Control Mode
ELECTROMETER	IQUANT	0	RE=0 or CS=1
IESTAB	IQUANT	2	I/E Stability
CASPEED	IQUANT	4	Control Amp Speed
CONVENTION	IQUANT	1	Current Convention
ICHRANGE	IQUANT	2	Ich Range
ICHRANGEMODE	TOGGLE	F	Ich Auto Range
ICHOFFSETENABLE	TOGGLE	F	Ich Offset Enable
ICHOFFSET	QUANT	0	Ich Offset (V)
ICHFILTER	IQUANT	3	Ich Filter
VCHRANGE	IQUANT	2	Vch Range
VCHRANGEMODE	TOGGLE	F	Vch Auto Range
VCHOFFSETENABLE	TOGGLE	F	Vch Offset Enable
VCHOFFSET	QUANT	0	Vch Offset (V)
VCHFILTER	IQUANT	3	Vch Filter
IERANGELOWERLIMIT	IQUANT	4	I/E Range Lower Limit
IERANGEMODE	TOGGLE	T	I/E AutoRange
IERANGE	IQUANT	11	I/E Range
ACHSELECT	IQUANT	0	Ach Select
ACHRANGE	IQUANT	2	Ach Range
ACHOFFSETENABLE	TOGGLE	F	Ach Offset Enable
ACHOFFSET	QUANT	0	Ach Offset (V)
ACHFILTER	IQUANT	1	Ach Filter
SENSECABLEID	IQUANT	13	Sense Cable ID
PWRCABLEID	IQUANT	13	Power Cable ID
DCCALDATE	LABEL	8/10/2023	DC Calibration Date
ACCALDATE	LABEL	6/3/2023	AC Calibration Date
FRAMEWORKVERSION	LABEL	7.10.3	Framework Version
INSTRUMENTVERSION	LABEL	4.91	Instrument Version
COMMVERSION	LABEL	3.10	Communications Version
CPUPLDVERSION	LABEL	2.22	CPU PLD Version
CTRLPLDVERSION	LABEL	0.00	CTRL PLD Version
PSTATPLDVERSION	LABEL	0.00	PSTAT PLD Version
CURVE	TABLE	801
	Pt	T	Vf	Im	Vu	Sig	Ach	IERange	Over	Cycle	Temp
	#	s	V vs. Ref.	A	V	V	V	#	bits	#	deg C
	0	0.2	-8.00135E-001	-4.92577E-003	0.00000E+000	-8.00005E-001	0.00000E+000	11	...........	0	1469.15
	9	2	-7.91093E-001	-4.27733E-003	0.00000E+000	-7.90996E-001	0.00000E+000	10	...........	0	1469.15
	18	3.8	-7.82131E-001	-3.83005E-003	0.00000E+000	-7.81998E-001	0.00000E+000	10	...........	0	1469.15
	27	5.6	-7.73122E-001	-5.08871E-003	0.00000E+000	-7.73001E-001	0.00000E+000	10	...........	0	1469.15
	36	7.4	-7.64111E-001	-4.03279E-003	0.00000E+000	-7.64004E-001	0.00000E+000	10	...........	0	1469.15
	45	9.2	-7.55103E-001	-3.58402E-003	0.00000E+000	-7.54994E-001	0.00000E+000	10	...........	0	1469.15
	54	11	-7.46119E-001	-3.26879E-003	0.00000E+000	-7.45997E-001	0.00000E+000	10	...........	0	1469.15
	63	12.8	-7.37108E-001	-2.88557E-003	0.00000E+000	-7.36999E-001	0.00000E+000	10	...........	0	1469.15
	72	14.6	-7.28113E-001	-2.65471E-003	0.00000E+000	-7.28002E-001	0.00000E+000	10	...........	0	1469.15
	81	16.4	-7.19139E-001	-2.69315E-003	0.00000E+000	-7.19005E-001	0.00000E+000	10	...........	0	1469.15
	90	18.2	-7.10092E-001	-2.49223E-003	0.00000E+000	-7.09995E-001	0.00000E+000	10	...........	0	1469.15
	99	20	-7.01109E-001	-2.20102E-003	0.00000E+000	-7.00998E-001	0.00000E+000	10	...........	0	1469.15
	108	21.8	-6.92125E-001	-1.99439E-003	0.00000E+000	-6.92000E-001	0.00000E+000	10	...........	0	1469.15
	117	23.6	-6.83125E-001	-1.74837E-003	0.00000E+000	-6.83003E-001	0.00000E+000	10	...........	0	1469.15
	126	25.4	-6.74103E-001	-1.52029E-003	0.00000E+000	-6.74006E-001	0.00000E+000	10	...........	0	1469.15
	135	27.2	-6.65131E-001	-1.33859E-003	0.00000E+000	-6.64996E-001	0.00000E+000	10	...........	0	1469.15
	144	29	-6.56120E-001	-1.28566E-003	0.00000E+000	-6.55999E-001	0.00000E+000	10	...........	0	1469.15
	153	30.8	-6.47124E-001	-1.08127E-003	0.00000E+000	-6.47001E-001	0.00000E+000	10	...........	0	1469.15
	162	32.6	-6.38112E-001	-9.40406E-004	0.00000E+000	-6.38004E-001	0.00000E+000	10	...........	0	1469.15
	171	34.4	-6.29108E-001	-8.16181E-004	0.00000E+000	-6.28994E-001	0.00000E+000	10	...........	0	1469.15
	180	36.2	-6.20109E-001	-7.01843E-004	0.00000E+000	-6.19997E-001	0.00000E+000	9	...........	0	1469.15
	189	38	-6.11114E-001	-6.27536E-004	0.00000E+000	-6.11000E-001	0.00000E+000	9	...........	0	1469.15
	198	39.8	-6.02133E-001	-5.27134E-004	0.00000E+000	-6.02002E-001	0.00000E+000	9	...........	0	1469.15
	207	41.6	-5.93129E-001	-4.27571E-004	0.00000E+000	-5.93005E-001	0.00000E+000	9	...........	0	1469.15
	216	43.4	-5.84102E-001	-3.49707E-004	0.00000E+000	-5.83995E-001	0.00000E+000	9	...........	0	1469.15
	225	45.2	-5.75112E-001	-2.87083E-004	0.00000E+000	-5.74998E-001	0.00000E+000	9	...........	0	1469.15
	234	47	-5.66138E-001	-2.31883E-004	0.00000E+000	-5.66001E-001	0.00000E+000	9	...........	0	1469.15
	243	48.8	-5.57120E-001	-1.84917E-004	0.00000E+000	-5.57003E-001	0.00000E+000	9	...........	0	1469.15
	252	50.6	-5.48121E-001	-1.45670E-004	0.00000E+000	-5.48006E-001	0.00000E+000	9	...........	0	1469.15
	261	52.4	-5.39126E-001	-1.17608E-004	0.00000E+000	-5.38996E-001	0.00000E+000	9	...........	0	1469.15
	270	54.2	-5.30124E-001	-9.36230E-005	0.00000E+000	-5.29999E-001	0.00000E+000	9	...........	0	1469.15
	279	56	-5.21104E-001	-7.29215E-005	0.00000E+000	-5.21002E-001	0.00000E+000	8	...........	0	1469.15
	288	57.8	-5.12107E-001	-5.80408E-005	0.00000E+000	-5.12004E-001	0.00000E+000	8	...........	0	1469.24
	297	59.6	-5.03127E-001	-4.80568E-005	0.00000E+000	-5.02994E-001	0.00000E+000	8	...........	0	1469.24
	306	61.4	-4.94114E-001	-4.06713E-005	0.00000E+000	-4.93997E-001	0.00000E+000	8	...........	0	1469.15
	315	63.2	-4.85101E-001	-3.40528E-005	0.00000E+000	-4.85000E-001	0.00000E+000	8	...........	0	1469.15
	324	65	-4.76120E-001	-2.88236E-005	0.00000E+000	-4.76003E-001	0.00000E+000	8	...........	0	1469.15
	333	66.8	-4.67118E-001	-2.79055E-005	0.00000E+000	-4.67005E-001	0.00000E+000	8	...........	0	1469.15
	342	68.6	-4.58105E-001	-2.29843E-005	0.00000E+000	-4.57996E-001	0.00000E+000	8	...........	0	1469.15
	351	70.4	-4.49125E-001	-1.91454E-005	0.00000E+000	-4.48998E-001	0.00000E+000	8	...........	0	1469.15
	360	72.2	-4.40122E-001	-1.62300E-005	0.00000E+000	-4.40001E-001	0.00000E+000	8	...........	0	1469.15
	369	74	-4.31104E-001	-1.39482E-005	0.00000E+000	-4.31004E-001	0.00000E+000	8	...........	0	1469.15
	378	75.8	-4.22118E-001	-1.21533E-005	0.00000E+000	-4.22006E-001	0.00000E+000	8	...........	0	1469.15
	387	77.6	-4.13099E-001	-1.07912E-005	0.00000E+000	-4.12997E-001	0.00000E+000	8	...........	0	1469.15
	396	79.4	-4.04143E-001	-9.72759E-006	0.00000E+000	-4.03999E-001	0.00000E+000	8	...........	0	1469.15
	405	81.2	-3.95135E-001	-8.89925E-006	0.00000E+000	-3.95002E-001	0.00000E+000	8	...........	0	1469.15
	414	83	-3.86163E-001	-8.33021E-006	0.00000E+000	-3.86005E-001	0.00000E+000	8	...........	0	1469.15
	423	84.8	-3.77114E-001	-7.96499E-006	0.00000E+000	-3.76995E-001	0.00000E+000	7	...........	0	1469.15
	432	86.6	-3.68130E-001	-7.61740E-006	0.00000E+000	-3.67997E-001	0.00000E+000	7	...........	0	1469.24
	441	88.4	-3.59139E-001	-7.33287E-006	0.00000E+000	-3.59000E-001	0.00000E+000	7	...........	0	1469.24
	450	90.2	-3.50129E-001	-7.08489E-006	0.00000E+000	-3.50003E-001	0.00000E+000	7	...........	0	1469.24
	459	92	-3.41144E-001	-6.91362E-006	0.00000E+000	-3.41006E-001	0.00000E+000	7	...........	0	1469.24
	468	93.8	-3.32127E-001	-6.72744E-006	0.00000E+000	-3.31996E-001	0.00000E+000	7	...........	0	1469.24
	477	95.6	-3.23126E-001	-6.57132E-006	0.00000E+000	-3.22998E-001	0.00000E+000	7	...........	0	1469.24
	486	97.4	-3.14134E-001	-6.41124E-006	0.00000E+000	-3.14001E-001	0.00000E+000	7	...........	0	1469.15
	495	99.2	-3.05115E-001	-6.26464E-006	0.00000E+000	-3.05004E-001	0.00000E+000	7	...........	0	1469.24
	504	101	-2.96135E-001	-6.12071E-006	0.00000E+000	-2.96007E-001	0.00000E+000	7	...........	0	1469.24
	513	102.8	-2.87124E-001	-6.00324E-006	0.00000E+000	-2.86997E-001	0.00000E+000	7	...........	0	1469.24
	522	104.6	-2.78096E-001	-5.86338E-006	0.00000E+000	-2.78000E-001	0.00000E+000	7	...........	0	1469.24
	531	106.4	-2.69137E-001	-5.73210E-006	0.00000E+000	-2.69002E-001	0.00000E+000	7	...........	0	1469.15
	540	108.2	-2.60140E-001	-5.58619E-006	0.00000E+000	-2.60005E-001	0.00000E+000	7	...........	0	1469.15
	549	110	-2.51102E-001	-5.45600E-006	0.00000E+000	-2.50995E-001	0.00000E+000	7	...........	0	1469.24
	558	111.8	-2.42106E-001	-5.30679E-006	0.00000E+000	-2.41998E-001	0.00000E+000	7	...........	0	1469.24
	567	113.6	-2.33113E-001	-5.16229E-006	0.00000E+000	-2.33001E-001	0.00000E+000	7	...........	0	1469.24
	576	115.4	-2.24101E-001	-5.04287E-006	0.00000E+000	-2.24003E-001	0.00000E+000	7	...........	0	1469.15
	585	117.2	-2.15131E-001	-4.90476E-006	0.00000E+000	-2.15006E-001	0.00000E+000	7	...........	0	1469.15
	594	119	-2.06122E-001	-4.77852E-006	0.00000E+000	-2.05996E-001	0.00000E+000	7	...........	0	1469.15
	603	120.8	-1.97122E-001	-4.62434E-006	0.00000E+000	-1.96999E-001	0.00000E+000	7	...........	0	1469.24
	612	122.6	-1.88122E-001	-4.47410E-006	0.00000E+000	-1.88001E-001	0.00000E+000	7	...........	0	1469.15
	621	124.4	-1.79134E-001	-4.33215E-006	0.00000E+000	-1.79004E-001	0.00000E+000	7	...........	0	1469.24
	630	126.2	-1.70139E-001	-4.18172E-006	0.00000E+000	-1.70007E-001	0.00000E+000	7	...........	0	1469.24
	639	128	-1.61112E-001	-4.01641E-006	0.00000E+000	-1.60997E-001	0.00000E+000	7	...........	0	1469.15
	648	129.8	-1.52112E-001	-3.86183E-006	0.00000E+000	-1.52000E-001	0.00000E+000	7	...........	0	1469.15
	657	131.6	-1.43123E-001	-3.70997E-006	0.00000E+000	-1.43003E-001	0.00000E+000	7	...........	0	1469.15
	666	133.4	-1.34123E-001	-3.57661E-006	0.00000E+000	-1.34005E-001	0.00000E+000	7	...........	0	1469.15
	675	135.2	-1.25104E-001	-3.42452E-006	0.00000E+000	-1.24995E-001	0.00000E+000	7	...........	0	1469.15
	684	137	-1.16131E-001	-3.28418E-006	0.00000E+000	-1.15998E-001	0.00000E+000	7	...........	0	1469.15
	693	138.8	-1.07104E-001	-3.13746E-006	0.00000E+000	-1.07001E-001	0.00000E+000	7	...........	0	1469.15
	702	140.6	-9.81131E-002	-2.99845E-006	0.00000E+000	-9.80035E-002	0.00000E+000	7	...........	0	1469.15
	711	142.4	-8.91062E-002	-2.86810E-006	0.00000E+000	-8.90062E-002	0.00000E+000	7	...........	0	1469.15
	720	144.2	-8.01316E-002	-2.72666E-006	0.00000E+000	-7.99964E-002	0.00000E+000	7	...........	0	1469.15
	729	146	-7.11112E-002	-2.59557E-006	0.00000E+000	-7.09991E-002	0.00000E+000	7	...........	0	1469.24
	738	147.8	-6.21048E-002	-2.44828E-006	0.00000E+000	-6.20018E-002	0.00000E+000	7	...........	0	1469.15
	747	149.6	-5.31236E-002	-2.31611E-006	0.00000E+000	-5.30045E-002	0.00000E+000	7	...........	0	1469.15
	756	151.4	-4.40915E-002	-2.18293E-006	0.00000E+000	-4.40072E-002	0.00000E+000	7	...........	0	1469.15
	765	153.2	-3.50932E-002	-2.06139E-006	0.00000E+000	-3.49974E-002	0.00000E+000	7	...........	0	1469.15
	774	155	-2.61067E-002	-1.93099E-006	0.00000E+000	-2.60001E-002	0.00000E+000	7	...........	0	1469.15
	783	156.8	-1.71084E-002	-1.79760E-006	0.00000E+000	-1.70028E-002	0.00000E+000	7	...........	0	1469.24
	792	158.6	-8.09836E-003	-1.69699E-006	0.00000E+000	-8.00550E-003	0.00000E+000	7	...........	0	1469.15
	800	160.2	-1.04345E-004	-1.57987E-006	0.00000E+000	4.58956E-006	0.00000E+000	7	...........	0	1469.15