File: input/MYCIE_#2.DTA
EXPLAIN
TAG	CV
TITLE	LABEL	MYCIE	Test Identifier
DATE	LABEL	17.7.2024	Date
TIME	LABEL	13:11:33	Time
NOTES	NOTES	1	Notes...

PSTAT	PSTAT	IFC1010-34090	Potentiostat
VINIT	POTEN	0.00000E+000	F	Initial E (V)
VLIMIT1	POTEN	4.00000E-001	F	Scan Limit 1 (V)
VLIMIT2	POTEN	-3.00000E-001	F	Scan Limit 2 (V)
VFINAL	POTEN	0.00000E+000	F	Final E (V)
SCANRATE	QUANT	2.00000E+002	Scan Rate (mV/s)
STEPSIZE	QUANT	2.00000E+000	Step Size (mV)
CYCLES	IQUANT	50	Cycles (#)
IMODE	SELECTOR	0	I/E Range Mode
IRANGE	QUANT	3.00000E-001	Max Current (mA)
AREA	QUANT	1.00000E+000	Sample Area (cm^2)
EQDELAY	QUANT	0.00000E+000	Equil. Time (s)
IRCOMP	SELECTOR	0	IRComp
PFCOR	QUANT	5.00000E+001	PF Corr. (ohm)
SAMPLINGMODE	SELECTOR	1	Sampling Mode
EOC	QUANT	0.7205974	Open Circuit (V)
ELECTRODETYPE	SELECTOR	0	Electrode Type
STRIPPING	TOGGLE	F	Used for Stripping
SEQUENCER	TOGGLE	TRUE	Run as Sequence
PSTATMODEL	IQUANT	64	Pstat Model
PSTATSECTION	LABEL	IFC1010-34090	Pstat Section
PSTATSERIALNO	LABEL	34090	Pstat Serial Number
CTRLMODE	IQUANT	1	Control Mode
ELECTROMETER	IQUANT	0	RE=0 or CS=1
IESTAB	IQUANT	2	I/E Stability
CASPEED	IQUANT	4	Control Amp Speed
CONVENTION	IQUANT	1	Current Convention
ICHRANGE	IQUANT	2	Ich Range
ICHRANGEMODE	TOGGLE	F	Ich Auto Range
ICHOFFSETENABLE	TOGGLE	F	Ich Offset Enable
ICHOFFSET	QUANT	0	Ich Offset (V)
ICHFILTER	IQUANT	3	Ich Filter
VCHRANGE	IQUANT	2	Vch Range
VCHRANGEMODE	TOGGLE	F	Vch Auto Range
VCHOFFSETENABLE	TOGGLE	F	Vch Offset Enable
VCHOFFSET	QUANT	0	Vch Offset (V)
VCHFILTER	IQUANT	3	Vch Filter
IERANGELOWERLIMIT	IQUANT	4	I/E Range Lower Limit
IERANGEMODE	TOGGLE	T	I/E AutoRange
IERANGE	IQUANT	9	I/E Range
ACHSELECT	IQUANT	0	Ach Select
ACHRANGE	IQUANT	2	Ach Range
ACHOFFSETENABLE	TOGGLE	F	Ach Offset Enable
ACHOFFSET	QUANT	0	Ach Offset (V)
ACHFILTER	IQUANT	1	Ach Filter
SENSECABLEID	IQUANT	13	Sense Cable ID
PWRCABLEID	IQUANT	13	Power Cable ID
DCCALDATE	LABEL	1/30/2024	DC Calibration Date
ACCALDATE	LABEL	1/8/2024	AC Calibration Date
FRAMEWORKVERSION	LABEL	7.10.3	Framework Version
INSTRUMENTVERSION	LABEL	4.91	Instrument Version
COMMVERSION	LABEL	3.10	Communications Version
CPUPLDVERSION	LABEL	2.22	CPU PLD Version
CTRLPLDVERSION	LABEL	0.00	CTRL PLD Version
PSTATPLDVERSION	LABEL	0.00	PSTAT PLD Version
CURVE1	TABLE
	Pt	T	Vf	Im	Vu	Sig	Ach	IERange	Over	Temp
	#	s	V vs. Ref.	A	V	V	V	#	bits	deg C
	0	0.01	2.59006E-004	1.09253E-003	0.00000E+000	1.72108E-006	0.00000E+000	9	....ih..i..	1467.79
	6	0.07	1.22442E-002	9.18173E-004	0.00000E+000	1.20005E-002	0.00000E+000	10	...........	1467.79
	12	0.13	2.42760E-002	8.39869E-004	0.00000E+000	2.39993E-002	0.00000E+000	10	...........	1467.79
	18	0.19	3.62712E-002	8.01632E-004	0.00000E+000	3.59981E-002	0.00000E+000	9	...........	1467.79
	24	0.25	4.82997E-002	7.85481E-004	0.00000E+000	4.79968E-002	0.00000E+000	9	...........	1467.79
	30	0.31	6.02790E-002	7.80586E-004	0.00000E+000	5.99956E-002	0.00000E+000	9	...........	1467.79
	36	0.37	7.22925E-002	7.82360E-004	0.00000E+000	7.19944E-002	0.00000E+000	9	...........	1467.79
	42	0.43	8.43135E-002	7.90643E-004	0.00000E+000	8.40057E-002	0.00000E+000	9	...........	1467.79
	48	0.49	9.63145E-002	8.06358E-004	0.00000E+000	9.60045E-002	0.00000E+000	9	...........	1467.79
	54	0.55	1.08310E-001	8.32895E-004	0.00000E+000	1.08003E-001	0.00000E+000	9	...........	1467.79
	60	0.61	1.20296E-001	8.75082E-004	0.00000E+000	1.20002E-001	0.00000E+000	9	...........	1467.79
	66	0.67	1.32324E-001	9.48028E-004	0.00000E+000	1.32001E-001	0.00000E+000	10	...........	1467.79
	72	0.73	1.44327E-001	1.08571E-003	0.00000E+000	1.44000E-001	0.00000E+000	10	...........	1467.79
	78	0.79	1.56339E-001	1.38076E-003	0.00000E+000	1.55998E-001	0.00000E+000	10	...........	1467.79
	84	0.85	1.68354E-001	1.65104E-003	0.00000E+000	1.67997E-001	0.00000E+000	10	...........	1467.70
	90	0.91	1.80357E-001	1.51680E-003	0.00000E+000	1.79996E-001	0.00000E+000	10	...........	1467.70
	96	0.97	1.92350E-001	1.27540E-003	0.00000E+000	1.91995E-001	0.00000E+000	10	...........	1467.70
	102	1.03	2.04339E-001	1.09480E-003	0.00000E+000	2.03993E-001	0.00000E+000	10	...........	1467.70
	108	1.09	2.16344E-001	9.21771E-004	0.00000E+000	2.16005E-001	0.00000E+000	10	...........	1467.70
	114	1.15	2.28357E-001	8.44792E-004	0.00000E+000	2.28004E-001	0.00000E+000	10	...........	1467.70
	120	1.21	2.40383E-001	8.02825E-004	0.00000E+000	2.40002E-001	0.00000E+000	10	...........	1467.70
	126	1.27	2.52362E-001	7.58664E-004	0.00000E+000	2.52001E-001	0.00000E+000	9	...........	1467.70
	132	1.33	2.64384E-001	7.16760E-004	0.00000E+000	2.64000E-001	0.00000E+000	9	...........	1467.70
	138	1.39	2.76396E-001	6.84840E-004	0.00000E+000	2.75999E-001	0.00000E+000	9	...........	1467.70
	144	1.45	2.88386E-001	6.65661E-004	0.00000E+000	2.87997E-001	0.00000E+000	9	...........	1467.70
	150	1.51	3.00395E-001	6.54898E-004	0.00000E+000	2.99996E-001	0.00000E+000	9	...........	1467.70
	156	1.57	3.12407E-001	6.50250E-004	0.00000E+000	3.11995E-001	0.00000E+000	9	...........	1467.70
	162	1.63	3.24401E-001	6.50035E-004	0.00000E+000	3.23994E-001	0.00000E+000	9	...........	1467.70
	168	1.69	3.36429E-001	6.53226E-004	0.00000E+000	3.36005E-001	0.00000E+000	9	...........	1467.70
	174	1.75	3.48444E-001	6.58619E-004	0.00000E+000	3.48004E-001	0.00000E+000	9	...........	1467.70
	180	1.81	3.60447E-001	6.65956E-004	0.00000E+000	3.60003E-001	0.00000E+000	9	...........	1467.31
	186	1.87	3.72456E-001	6.74467E-004	0.00000E+000	3.72001E-001	0.00000E+000	9	...........	1467.25
	192	1.93	3.84441E-001	6.84001E-004	0.00000E+000	3.84000E-001	0.00000E+000	9	...........	1467.25
	198	1.99	3.96436E-001	6.93965E-004	0.00000E+000	3.95999E-001	0.00000E+000	9	...........	1467.25
	204	2.05	3.92447E-001	6.71110E-004	0.00000E+000	3.91999E-001	0.00000E+000	9	...........	1467.25
	210	2.11	3.80446E-001	6.49942E-004	0.00000E+000	3.80001E-001	0.00000E+000	9	...........	1467.25
	216	2.17	3.68418E-001	6.33994E-004	0.00000E+000	3.68002E-001	0.00000E+000	9	...........	1467.25
	222	2.23	3.56414E-001	6.17512E-004	0.00000E+000	3.56003E-001	0.00000E+000	9	...........	1467.25
	228	2.29	3.44409E-001	6.01675E-004	0.00000E+000	3.44004E-001	0.00000E+000	9	...........	1467.25
	234	2.35	3.32417E-001	5.81760E-004	0.00000E+000	3.32005E-001	0.00000E+000	9	...........	1467.25
	240	2.41	3.20385E-001	5.65067E-004	0.00000E+000	3.19994E-001	0.00000E+000	9	...........	1467.25
	246	2.47	3.08404E-001	5.51222E-004	0.00000E+000	3.07995E-001	0.00000E+000	9	...........	1467.25
	252	2.53	2.96404E-001	5.38904E-004	0.00000E+000	2.95997E-001	0.00000E+000	9	...........	1467.25
	258	2.59	2.84416E-001	5.27524E-004	0.00000E+000	2.83998E-001	0.00000E+000	9	...........	1467.25
	264	2.65	2.72401E-001	5.16767E-004	0.00000E+000	2.71999E-001	0.00000E+000	9	...........	1467.25
	270	2.71	2.60385E-001	5.06152E-004	0.00000E+000	2.60000E-001	0.00000E+000	9	...........	1467.25
	276	2.77	2.48353E-001	4.95884E-004	0.00000E+000	2.48001E-001	0.00000E+000	9	...........	1467.25
	282	2.83	2.36353E-001	4.85930E-004	0.00000E+000	2.36003E-001	0.00000E+000	9	...........	1467.16
	288	2.89	2.24363E-001	4.76101E-004	0.00000E+000	2.24004E-001	0.00000E+000	9	...........	1467.16
	294	2.95	2.12357E-001	4.66606E-004	0.00000E+000	2.12005E-001	0.00000E+000	9	...........	1467.16
	300	3.01	2.00346E-001	4.57670E-004	0.00000E+000	1.99994E-001	0.00000E+000	9	...........	1467.16
	306	3.07	1.88329E-001	4.48998E-004	0.00000E+000	1.87995E-001	0.00000E+000	9	...........	1467.16
	312	3.13	1.76331E-001	4.40964E-004	0.00000E+000	1.75996E-001	0.00000E+000	9	...........	1467.16
	318	3.19	1.64305E-001	4.33251E-004	0.00000E+000	1.63998E-001	0.00000E+000	9	...........	1467.16
	324	3.25	1.52297E-001	4.26010E-004	0.00000E+000	1.51999E-001	0.00000E+000	9	...........	1467.16
	330	3.31	1.40316E-001	4.19009E-004	0.00000E+000	1.40000E-001	0.00000E+000	9	...........	1467.16
	336	3.37	1.28345E-001	4.12186E-004	0.00000E+000	1.28001E-001	0.00000E+000	9	...........	1467.16
	342	3.43	1.16332E-001	4.02091E-004	0.00000E+000	1.16002E-001	0.00000E+000	9	...........	1467.16
	348	3.49	1.04319E-001	3.90163E-004	0.00000E+000	1.04004E-001	0.00000E+000	9	...........	1467.16
	354	3.55	9.23102E-002	3.79185E-004	0.00000E+000	9.20049E-002	0.00000E+000	9	...........	1467.16
	360	3.61	8.03084E-002	3.68618E-004	0.00000E+000	8.00061E-002	0.00000E+000	9	...........	1467.16
	366	3.67	6.82782E-002	3.58578E-004	0.00000E+000	6.79948E-002	0.00000E+000	9	...........	1467.16
	372	3.73	5.62739E-002	3.49390E-004	0.00000E+000	5.59960E-002	0.00000E+000	9	...........	1467.16
	378	3.79	4.42738E-002	3.41339E-004	0.00000E+000	4.39972E-002	0.00000E+000	9	...........	1467.16
	384	3.85	3.22986E-002	3.33961E-004	0.00000E+000	3.19985E-002	0.00000E+000	9	...........	1467.34
	390	3.91	2.02676E-002	3.26230E-004	0.00000E+000	1.99997E-002	0.00000E+000	9	...........	1467.34
	396	3.97	8.26995E-003	3.17393E-004	0.00000E+000	8.00091E-003	0.00000E+000	9	...........	1467.34
	402	4.03	-3.75689E-003	3.07261E-004	0.00000E+000	-3.99787E-003	0.00000E+000	9	...........	1467.34
	408	4.09	-1.57612E-002	2.96090E-004	0.00000E+000	-1.59967E-002	0.00000E+000	9	...........	1467.34
	414	4.15	-2.77605E-002	2.84044E-004	0.00000E+000	-2.79954E-002	0.00000E+000	9	...........	1467.34
	420	4.21	-3.97699E-002	2.71737E-004	0.00000E+000	-3.99942E-002	0.00000E+000	9	...........	1467.34
	426	4.27	-5.18009E-002	2.59514E-004	0.00000E+000	-5.20055E-002	0.00000E+000	9	...........	1467.34
	432	4.33	-6.38111E-002	2.47625E-004	0.00000E+000	-6.40043E-002	0.00000E+000	9	...........	1467.34
	438	4.39	-7.57829E-002	2.36291E-004	0.00000E+000	-7.60030E-002	0.00000E+000	9	...........	1467.34
	444	4.45	-8.77763E-002	2.24844E-004	0.00000E+000	-8.80018E-002	0.00000E+000	9	...........	1467.34
	450	4.51	-9.97907E-002	2.12747E-004	0.00000E+000	-1.00001E-001	0.00000E+000	9	...........	1467.34
	456	4.57	-1.11774E-001	1.99422E-004	0.00000E+000	-1.11999E-001	0.00000E+000	9	...........	1467.34
	462	4.63	-1.23773E-001	1.84232E-004	0.00000E+000	-1.23998E-001	0.00000E+000	9	...........	1467.34
	468	4.69	-1.35797E-001	1.67199E-004	0.00000E+000	-1.35997E-001	0.00000E+000	9	...........	1467.34
	474	4.75	-1.47780E-001	1.48649E-004	0.00000E+000	-1.47996E-001	0.00000E+000	9	...........	1467.34
	480	4.81	-1.59797E-001	1.28581E-004	0.00000E+000	-1.59994E-001	0.00000E+000	9	...........	1467.10
	486	4.87	-1.71807E-001	1.06716E-004	0.00000E+000	-1.72006E-001	0.00000E+000	9	...........	1467.07
	492	4.93	-1.83814E-001	8.21949E-005	0.00000E+000	-1.84005E-001	0.00000E+000	9	...........	1467.07
	498	4.99	-1.95843E-001	5.23307E-005	0.00000E+000	-1.96003E-001	0.00000E+000	8	...........	1467.07
	504	5.05	-2.07823E-001	1.40804E-005	0.00000E+000	-2.08002E-001	0.00000E+000	8	...........	1467.07
	510	5.11	-2.19834E-001	-3.84014E-005	0.00000E+000	-2.20001E-001	0.00000E+000	8	...........	1467.07
	516	5.17	-2.31842E-001	-1.12525E-004	0.00000E+000	-2.32000E-001	0.00000E+000	9	...........	1467.07
	522	5.23	-2.43821E-001	-2.18426E-004	0.00000E+000	-2.43998E-001	0.00000E+000	9	...........	1467.07
	528	5.29	-2.55798E-001	-3.65200E-004	0.00000E+000	-2.55997E-001	0.00000E+000	9	...........	1467.07
	534	5.35	-2.67830E-001	-5.59039E-004	0.00000E+000	-2.67996E-001	0.00000E+000	9	...........	1467.07
	540	5.41	-2.79836E-001	-8.00742E-004	0.00000E+000	-2.79995E-001	0.00000E+000	9	...........	1467.07
	546	5.47	-2.91850E-001	-1.08405E-003	0.00000E+000	-2.91994E-001	0.00000E+000	10	...........	1467.07
	550	5.51	-2.99863E-001	-1.29403E-003	0.00000E+000	-3.00005E-001	0.00000E+000	10	...........	1467.07
CURVE2	TABLE
	Pt	T	Vf	Im	Vu	Sig	Ach	IERange	Over	Temp
	#	s	V vs. Ref.	A	V	V	V	#	bits	deg C
	551	5.52	-2.97891E-001	-1.23320E-003	0.00000E+000	-2.98005E-001	0.00000E+000	10	...........	1467.07
	558	5.59	-2.83844E-001	-8.61043E-004	0.00000E+000	-2.83994E-001	0.00000E+000	10	...........	1467.07
	565	5.66	-2.69836E-001	-5.50979E-004	0.00000E+000	-2.69996E-001	0.00000E+000	9	...........	1467.07
	572	5.73	-2.55811E-001	-3.04330E-004	0.00000E+000	-2.55997E-001	0.00000E+000	9	...........	1467.07
	579	5.8	-2.41808E-001	-1.19586E-004	0.00000E+000	-2.41999E-001	0.00000E+000	9	...........	1467.07
	586	5.87	-2.27814E-001	8.47972E-006	0.00000E+000	-2.28000E-001	0.00000E+000	7	.....h.....	1467.07
	593	5.94	-2.13817E-001	9.80596E-005	0.00000E+000	-2.14002E-001	0.00000E+000	8	.....h.....	1467.07
	600	6.01	-1.99826E-001	1.57665E-004	0.00000E+000	-2.00003E-001	0.00000E+000	9	...........	1467.07
	607	6.08	-1.85818E-001	1.99360E-004	0.00000E+000	-1.86004E-001	0.00000E+000	9	...........	1467.07
	614	6.15	-1.71816E-001	2.29067E-004	0.00000E+000	-1.72006E-001	0.00000E+000	9	...........	1467.07
	621	6.22	-1.57788E-001	2.52765E-004	0.00000E+000	-1.57995E-001	0.00000E+000	9	...........	1467.07
	628	6.29	-1.43809E-001	2.71966E-004	0.00000E+000	-1.43996E-001	0.00000E+000	9	...........	1467.07
	635	6.36	-1.29803E-001	2.89418E-004	0.00000E+000	-1.29998E-001	0.00000E+000	9	...........	1467.07
	642	6.43	-1.15793E-001	3.04886E-004	0.00000E+000	-1.15999E-001	0.00000E+000	9	...........	1467.07
	649	6.5	-1.01787E-001	3.19902E-004	0.00000E+000	-1.02000E-001	0.00000E+000	9	...........	1467.07
	656	6.57	-8.77638E-002	3.34106E-004	0.00000E+000	-8.80018E-002	0.00000E+000	9	...........	1467.07
	663	6.64	-7.37620E-002	3.48575E-004	0.00000E+000	-7.40032E-002	0.00000E+000	9	...........	1467.07
	670	6.71	-5.97668E-002	3.62451E-004	0.00000E+000	-6.00047E-002	0.00000E+000	9	...........	1467.07
	677	6.78	-4.57624E-002	3.76816E-004	0.00000E+000	-4.60061E-002	0.00000E+000	9	...........	1467.07
	684	6.85	-3.17606E-002	3.90835E-004	0.00000E+000	-3.19950E-002	0.00000E+000	9	...........	1467.16
	691	6.92	-1.77504E-002	4.05769E-004	0.00000E+000	-1.79964E-002	0.00000E+000	9	...........	1467.16
	698	6.99	-3.74355E-003	4.21387E-004	0.00000E+000	-3.99787E-003	0.00000E+000	9	...........	1467.16
	705	7.06	1.02616E-002	4.40230E-004	0.00000E+000	1.00007E-002	0.00000E+000	9	...........	1467.16
	712	7.13	2.42627E-002	4.63554E-004	0.00000E+000	2.39993E-002	0.00000E+000	9	...........	1467.16
	719	7.2	3.82520E-002	4.95217E-004	0.00000E+000	3.79979E-002	0.00000E+000	9	...........	1467.16
	726	7.27	5.22914E-002	5.36193E-004	0.00000E+000	5.19964E-002	0.00000E+000	9	...........	1467.16
	733	7.34	6.63074E-002	5.87808E-004	0.00000E+000	6.59950E-002	0.00000E+000	9	...........	1467.16
	740	7.41	8.03159E-002	6.42464E-004	0.00000E+000	7.99936E-002	0.00000E+000	9	...........	1467.16
	747	7.48	9.42986E-002	6.83119E-004	0.00000E+000	9.40047E-002	0.00000E+000	9	...........	1467.16
	754	7.55	1.08297E-001	6.88236E-004	0.00000E+000	1.08003E-001	0.00000E+000	9	...........	1467.16
	761	7.62	1.22301E-001	6.38771E-004	0.00000E+000	1.22002E-001	0.00000E+000	9	...........	1467.16
	768	7.69	1.36327E-001	5.38794E-004	0.00000E+000	1.36000E-001	0.00000E+000	9	...........	1467.16
	775	7.76	1.50317E-001	4.68736E-004	0.00000E+000	1.49999E-001	0.00000E+000	9	...........	1467.16
	782	7.83	1.64335E-001	4.30868E-004	0.00000E+000	1.63998E-001	0.00000E+000	9	...........	1467.07
	789	7.9	1.78338E-001	4.12106E-004	0.00000E+000	1.77996E-001	0.00000E+000	9	...........	1467.07
	796	7.97	1.92353E-001	4.04407E-004	0.00000E+000	1.91995E-001	0.00000E+000	9	...........	1467.07
	803	8.04	2.06363E-001	4.01418E-004	0.00000E+000	2.05993E-001	0.00000E+000	9	...........	1467.07
	810	8.11	2.20379E-001	4.02020E-004	0.00000E+000	2.20004E-001	0.00000E+000	9	...........	1467.07
	817	8.18	2.34374E-001	4.05754E-004	0.00000E+000	2.34003E-001	0.00000E+000	9	...........	1467.07
	824	8.25	2.48375E-001	4.12156E-004	0.00000E+000	2.48001E-001	0.00000E+000	9	...........	1467.07
	831	8.32	2.62398E-001	4.21024E-004	0.00000E+000	2.62000E-001	0.00000E+000	9	...........	1467.07
	838	8.39	2.76391E-001	4.31674E-004	0.00000E+000	2.75999E-001	0.00000E+000	9	...........	1467.07
	845	8.46	2.90407E-001	4.43885E-004	0.00000E+000	2.89997E-001	0.00000E+000	9	...........	1467.07
	852	8.53	3.04382E-001	4.56930E-004	0.00000E+000	3.03996E-001	0.00000E+000	9	...........	1467.07
	859	8.6	3.18403E-001	4.70520E-004	0.00000E+000	3.17994E-001	0.00000E+000	9	...........	1467.07
	866	8.67	3.32403E-001	4.84320E-004	0.00000E+000	3.31993E-001	0.00000E+000	9	...........	1467.07
	873	8.74	3.46433E-001	4.98264E-004	0.00000E+000	3.46004E-001	0.00000E+000	9	...........	1467.07
	880	8.81	3.60433E-001	5.12621E-004	0.00000E+000	3.60003E-001	0.00000E+000	9	...........	1467.23
	887	8.88	3.74448E-001	5.27376E-004	0.00000E+000	3.74001E-001	0.00000E+000	9	...........	1467.25
	894	8.95	3.88446E-001	5.42089E-004	0.00000E+000	3.88000E-001	0.00000E+000	9	...........	1467.25
	901	9.02	3.98459E-001	5.44088E-004	0.00000E+000	3.97999E-001	0.00000E+000	9	...........	1467.25
	908	9.09	3.84439E-001	5.15733E-004	0.00000E+000	3.84000E-001	0.00000E+000	9	...........	1467.25
	915	9.16	3.70434E-001	4.98022E-004	0.00000E+000	3.70002E-001	0.00000E+000	9	...........	1467.25
	922	9.23	3.56390E-001	4.83882E-004	0.00000E+000	3.56003E-001	0.00000E+000	9	...........	1467.25
	929	9.3	3.42413E-001	4.71516E-004	0.00000E+000	3.42004E-001	0.00000E+000	9	...........	1467.25
	936	9.37	3.28384E-001	4.59939E-004	0.00000E+000	3.27993E-001	0.00000E+000	9	...........	1467.25
	943	9.44	3.14402E-001	4.48162E-004	0.00000E+000	3.13995E-001	0.00000E+000	9	...........	1467.25
	950	9.51	3.00391E-001	4.30637E-004	0.00000E+000	2.99996E-001	0.00000E+000	9	...........	1467.25
	957	9.58	2.86379E-001	4.12672E-004	0.00000E+000	2.85998E-001	0.00000E+000	9	...........	1467.25
[...]
	34807	348.08	-2.13816E-001	-9.11688E-005	0.00000E+000	-2.14002E-001	0.00000E+000	8	...........	1467.34
	34815	348.16	-2.29827E-001	-1.76727E-004	0.00000E+000	-2.30000E-001	0.00000E+000	9	...........	1467.34
	34823	348.24	-2.45820E-001	-3.56793E-004	0.00000E+000	-2.45998E-001	0.00000E+000	9	...........	1467.34
	34831	348.32	-2.61826E-001	-6.76964E-004	0.00000E+000	-2.61997E-001	0.00000E+000	9	...........	1467.34
	34839	348.4	-2.77814E-001	-1.16086E-003	0.00000E+000	-2.77995E-001	0.00000E+000	10	...........	1467.34
	34847	348.48	-2.93821E-001	-1.80126E-003	0.00000E+000	-2.94006E-001	0.00000E+000	10	...........	1467.34
	34850	348.51	-2.99832E-001	-2.07351E-003	0.00000E+000	-3.00005E-001	0.00000E+000	10	...........	1467.34
CURVE51	TABLE
	Pt	T	Vf	Im	Vu	Sig	Ach	IERange	Over	Temp
	#	s	V vs. Ref.	A	V	V	V	#	bits	deg C
	34851	348.52	-2.97850E-001	-1.97560E-003	0.00000E+000	-2.98005E-001	0.00000E+000	10	...........	1467.34
	34853	348.54	-2.93837E-001	-1.78467E-003	0.00000E+000	-2.94006E-001	0.00000E+000	10	...........	1467.34
	34855	348.56	-2.89840E-001	-1.60190E-003	0.00000E+000	-2.90006E-001	0.00000E+000	10	...........	1467.34
	34857	348.58	-2.85837E-001	-1.42658E-003	0.00000E+000	-2.85994E-001	0.00000E+000	10	...........	1467.34
	34859	348.6	-2.81837E-001	-1.26074E-003	0.00000E+000	-2.81995E-001	0.00000E+000	10	...........	1467.34
	34861	348.62	-2.77825E-001	-1.10371E-003	0.00000E+000	-2.77995E-001	0.00000E+000	10	...........	1467.34
	34863	348.64	-2.73832E-001	-9.56172E-004	0.00000E+000	-2.73995E-001	0.00000E+000	10	...........	1467.34
	34865	348.66	-2.69846E-001	-8.18490E-004	0.00000E+000	-2.69996E-001	0.00000E+000	10	...........	1467.34
	34867	348.68	-2.65855E-001	-6.91956E-004	0.00000E+000	-2.65996E-001	0.00000E+000	9	...........	1467.34
	34869	348.7	-2.61833E-001	-5.74247E-004	0.00000E+000	-2.61997E-001	0.00000E+000	9	...........	1467.34
	34871	348.72	-2.57834E-001	-4.66305E-004	0.00000E+000	-2.57997E-001	0.00000E+000	9	...........	1467.34
	34873	348.74	-2.53807E-001	-3.68361E-004	0.00000E+000	-2.53997E-001	0.00000E+000	9	...........	1467.34
	34875	348.76	-2.49817E-001	-2.79797E-004	0.00000E+000	-2.49998E-001	0.00000E+000	9	...........	1467.34
	34877	348.78	-2.45816E-001	-2.00296E-004	0.00000E+000	-2.45998E-001	0.00000E+000	9	...........	1467.34
	34879	348.8	-2.41808E-001	-1.29385E-004	0.00000E+000	-2.41999E-001	0.00000E+000	9	...........	1467.34
	34881	348.82	-2.37817E-001	-6.66353E-005	0.00000E+000	-2.37999E-001	0.00000E+000	9	...........	1467.16
	34883	348.84	-2.33821E-001	-1.14266E-005	0.00000E+000	-2.33999E-001	0.00000E+000	8	...........	1467.16
	34885	348.86	-2.29810E-001	3.71658E-005	0.00000E+000	-2.30000E-001	0.00000E+000	8	...........	1467.16
	34887	348.88	-2.25831E-001	7.97517E-005	0.00000E+000	-2.26000E-001	0.00000E+000	8	...........	1467.16
	34889	348.9	-2.21814E-001	1.17214E-004	0.00000E+000	-2.22001E-001	0.00000E+000	9	...........	1467.16
	34891	348.92	-2.17856E-001	1.49422E-004	0.00000E+000	-2.18001E-001	0.00000E+000	9	...........	1467.16
	34893	348.94	-2.13817E-001	1.77394E-004	0.00000E+000	-2.14002E-001	0.00000E+000	9	...........	1467.16
	34895	348.96	-2.09824E-001	2.01348E-004	0.00000E+000	-2.10002E-001	0.00000E+000	9	...........	1467.16
	34897	348.98	-2.05825E-001	2.21841E-004	0.00000E+000	-2.06002E-001	0.00000E+000	9	...........	1467.16
	34899	349	-2.01822E-001	2.39541E-004	0.00000E+000	-2.02003E-001	0.00000E+000	9	...........	1467.16
	34901	349.02	-1.97811E-001	2.54356E-004	0.00000E+000	-1.98003E-001	0.00000E+000	9	...........	1467.16
	34903	349.04	-1.93829E-001	2.66932E-004	0.00000E+000	-1.94004E-001	0.00000E+000	9	...........	1467.16
	34905	349.06	-1.89814E-001	2.77485E-004	0.00000E+000	-1.90004E-001	0.00000E+000	9	...........	1467.16
	34907	349.08	-1.85818E-001	2.86231E-004	0.00000E+000	-1.86004E-001	0.00000E+000	9	...........	1467.16
	34909	349.1	-1.81808E-001	2.93183E-004	0.00000E+000	-1.82005E-001	0.00000E+000	9	...........	1467.16
	34911	349.12	-1.77799E-001	2.98998E-004	0.00000E+000	-1.78005E-001	0.00000E+000	9	...........	1467.16
	34913	349.14	-1.73814E-001	3.03440E-004	0.00000E+000	-1.74006E-001	0.00000E+000	9	...........	1467.16
	34915	349.16	-1.69800E-001	3.06916E-004	0.00000E+000	-1.70006E-001	0.00000E+000	9	...........	1467.16
	34917	349.18	-1.65806E-001	3.09438E-004	0.00000E+000	-1.66006E-001	0.00000E+000	9	...........	1467.16
	34919	349.2	-1.61800E-001	3.11231E-004	0.00000E+000	-1.61994E-001	0.00000E+000	9	...........	1467.16
	34921	349.22	-1.57808E-001	3.12289E-004	0.00000E+000	-1.57995E-001	0.00000E+000	9	...........	1467.16
	34923	349.24	-1.53790E-001	3.12740E-004	0.00000E+000	-1.53995E-001	0.00000E+000	9	...........	1467.16
	34925	349.26	-1.49789E-001	3.12758E-004	0.00000E+000	-1.49996E-001	0.00000E+000	9	...........	1467.16
	34927	349.28	-1.45791E-001	3.12324E-004	0.00000E+000	-1.45996E-001	0.00000E+000	9	...........	1467.16
	34929	349.3	-1.41796E-001	3.11492E-004	0.00000E+000	-1.41996E-001	0.00000E+000	9	...........	1467.16
	34931	349.32	-1.37792E-001	3.10305E-004	0.00000E+000	-1.37997E-001	0.00000E+000	9	...........	1467.16
	34933	349.34	-1.33784E-001	3.08924E-004	0.00000E+000	-1.33997E-001	0.00000E+000	9	...........	1467.16
	34935	349.36	-1.29793E-001	3.07234E-004	0.00000E+000	-1.29998E-001	0.00000E+000	9	...........	1467.16
	34937	349.38	-1.25773E-001	3.05435E-004	0.00000E+000	-1.25998E-001	0.00000E+000	9	...........	1467.16
	34939	349.4	-1.21799E-001	3.03402E-004	0.00000E+000	-1.21998E-001	0.00000E+000	9	...........	1467.16
	34941	349.42	-1.17776E-001	3.01245E-004	0.00000E+000	-1.17999E-001	0.00000E+000	9	...........	1467.16
	34943	349.44	-1.13780E-001	2.99137E-004	0.00000E+000	-1.13999E-001	0.00000E+000	9	...........	1467.16
	34945	349.46	-1.09777E-001	2.96904E-004	0.00000E+000	-1.10000E-001	0.00000E+000	9	...........	1467.16
	34947	349.48	-1.05791E-001	2.94566E-004	0.00000E+000	-1.06000E-001	0.00000E+000	9	...........	1467.16
	34949	349.5	-1.01781E-001	2.92170E-004	0.00000E+000	-1.02000E-001	0.00000E+000	9	...........	1467.16
	34951	349.52	-9.77781E-002	2.89704E-004	0.00000E+000	-9.80008E-002	0.00000E+000	9	...........	1467.16
	34953	349.54	-9.37823E-002	2.87306E-004	0.00000E+000	-9.40012E-002	0.00000E+000	9	...........	1467.16
	34955	349.56	-8.97864E-002	2.84720E-004	0.00000E+000	-9.00016E-002	0.00000E+000	9	...........	1467.16
	34957	349.58	-8.57663E-002	2.82200E-004	0.00000E+000	-8.60020E-002	0.00000E+000	9	...........	1467.16
	34959	349.6	-8.17646E-002	2.79632E-004	0.00000E+000	-8.20024E-002	0.00000E+000	9	...........	1467.16
	34961	349.62	-7.77862E-002	2.76882E-004	0.00000E+000	-7.80028E-002	0.00000E+000	9	...........	1467.16
	34963	349.64	-7.37553E-002	2.74286E-004	0.00000E+000	-7.40032E-002	0.00000E+000	9	...........	1467.16
	34965	349.66	-6.97594E-002	2.71517E-004	0.00000E+000	-7.00037E-002	0.00000E+000	9	...........	1467.16
	34967	349.68	-6.57694E-002	2.68621E-004	0.00000E+000	-6.60041E-002	0.00000E+000	9	...........	1467.16
	34969	349.7	-6.17610E-002	2.65682E-004	0.00000E+000	-6.20045E-002	0.00000E+000	9	...........	1467.16
	34971	349.72	-5.77784E-002	2.62645E-004	0.00000E+000	-5.80049E-002	0.00000E+000	9	...........	1467.16
	34973	349.74	-5.37684E-002	2.59489E-004	0.00000E+000	-5.40053E-002	0.00000E+000	9	...........	1467.16
	34975	349.76	-4.97558E-002	2.56197E-004	0.00000E+000	-5.00057E-002	0.00000E+000	9	...........	1467.16
	34977	349.78	-4.57458E-002	2.52837E-004	0.00000E+000	-4.60061E-002	0.00000E+000	9	...........	1467.16
	34979	349.8	-4.17624E-002	2.49425E-004	0.00000E+000	-4.20065E-002	0.00000E+000	9	...........	1467.16
	34981	349.82	-3.77415E-002	2.45856E-004	0.00000E+000	-3.79944E-002	0.00000E+000	9	...........	1467.25
	34983	349.84	-3.37473E-002	2.42091E-004	0.00000E+000	-3.39948E-002	0.00000E+000	9	...........	1467.25
	34985	349.86	-2.97539E-002	2.38192E-004	0.00000E+000	-2.99952E-002	0.00000E+000	9	...........	1467.25
	34987	349.88	-2.57430E-002	2.34185E-004	0.00000E+000	-2.59956E-002	0.00000E+000	9	...........	1467.25
	34989	349.9	-2.17288E-002	2.30296E-004	0.00000E+000	-2.19960E-002	0.00000E+000	9	...........	1467.25
	34991	349.92	-1.77321E-002	2.26039E-004	0.00000E+000	-1.79964E-002	0.00000E+000	9	...........	1467.25
	34993	349.94	-1.37470E-002	2.21756E-004	0.00000E+000	-1.39969E-002	0.00000E+000	9	...........	1467.25
	34995	349.96	-9.73362E-003	2.17469E-004	0.00000E+000	-9.99726E-003	0.00000E+000	9	...........	1467.25
	34997	349.98	-5.73106E-003	2.13169E-004	0.00000E+000	-5.99767E-003	0.00000E+000	9	...........	1467.25
	34999	350	-1.73768E-003	2.08815E-004	0.00000E+000	-1.99808E-003	0.00000E+000	9	...........	1467.25
	35000	350.01	2.96538E-004	2.07297E-004	0.00000E+000	1.72108E-006	0.00000E+000	9	...........	1467.25