File: input/MYCIE_#1.DTA
EXPLAIN
TAG	CV
TITLE	LABEL	MYCIE	Test Identifier
DATE	LABEL	21.8.2024	Date
TIME	LABEL	14:43:33	Time
NOTES	NOTES	1	Notes...

PSTAT	PSTAT	IFC1010-36105	Potentiostat
VINIT	POTEN	0.00000E+000	F	Initial E (V)
VLIMIT1	POTEN	4.00000E-001	F	Scan Limit 1 (V)
VLIMIT2	POTEN	-3.00000E-001	F	Scan Limit 2 (V)
VFINAL	POTEN	0.00000E+000	F	Final E (V)
SCANRATE	QUANT	2.00000E+002	Scan Rate (mV/s)
STEPSIZE	QUANT	2.00000E+000	Step Size (mV)
CYCLES	IQUANT	20	Cycles (#)
IMODE	SELECTOR	0	I/E Range Mode
IRANGE	QUANT	3.00000E-001	Max Current (mA)
AREA	QUANT	1.00000E+000	Sample Area (cm^2)
EQDELAY	QUANT	0.00000E+000	Equil. Time (s)
IRCOMP	SELECTOR	0	IRComp
PFCOR	QUANT	5.00000E+001	PF Corr. (ohm)
SAMPLINGMODE	SELECTOR	1	Sampling Mode
EOC	QUANT	-0.1279954	Open Circuit (V)
ELECTRODETYPE	SELECTOR	0	Electrode Type
STRIPPING	TOGGLE	F	Used for Stripping
SEQUENCER	TOGGLE	TRUE	Run as Sequence
PSTATMODEL	IQUANT	64	Pstat Model
PSTATSECTION	LABEL	IFC1010-36105	Pstat Section
PSTATSERIALNO	LABEL	36105	Pstat Serial Number
CTRLMODE	IQUANT	1	Control Mode
ELECTROMETER	IQUANT	0	RE=0 or CS=1
IESTAB	IQUANT	2	I/E Stability
CASPEED	IQUANT	4	Control Amp Speed
CONVENTION	IQUANT	1	Current Convention
ICHRANGE	IQUANT	2	Ich Range
ICHRANGEMODE	TOGGLE	F	Ich Auto Range
ICHOFFSETENABLE	TOGGLE	F	Ich Offset Enable
ICHOFFSET	QUANT	0	Ich Offset (V)
ICHFILTER	IQUANT	3	Ich Filter
VCHRANGE	IQUANT	2	Vch Range
VCHRANGEMODE	TOGGLE	F	Vch Auto Range
VCHOFFSETENABLE	TOGGLE	F	Vch Offset Enable
VCHOFFSET	QUANT	0	Vch Offset (V)
VCHFILTER	IQUANT	3	Vch Filter
IERANGELOWERLIMIT	IQUANT	4	I/E Range Lower Limit
IERANGEMODE	TOGGLE	T	I/E AutoRange
IERANGE	IQUANT	9	I/E Range
ACHSELECT	IQUANT	0	Ach Select
ACHRANGE	IQUANT	2	Ach Range
ACHOFFSETENABLE	TOGGLE	F	Ach Offset Enable
ACHOFFSET	QUANT	0	Ach Offset (V)
ACHFILTER	IQUANT	1	Ach Filter
SENSECABLEID	IQUANT	13	Sense Cable ID
PWRCABLEID	IQUANT	13	Power Cable ID
DCCALDATE	LABEL	10/17/2023	DC Calibration Date
ACCALDATE	LABEL	6/2/2023	AC Calibration Date
FRAMEWORKVERSION	LABEL	7.10.3	Framework Version
INSTRUMENTVERSION	LABEL	4.91	Instrument Version
COMMVERSION	LABEL	3.10	Communications Version
CPUPLDVERSION	LABEL	2.22	CPU PLD Version
CTRLPLDVERSION	LABEL	0.00	CTRL PLD Version
PSTATPLDVERSION	LABEL	0.00	PSTAT PLD Version
CURVE1	TABLE
	Pt	T	Vf	Im	Vu	Sig	Ach	IERange	Over	Temp
	#	s	V vs. Ref.	A	V	V	V	#	bits	deg C
	0	0.01	1.20183E-004	2.79655E-006	0.00000E+000	2.72319E-006	0.00000E+000	9	...........	1490.70
	6	0.07	1.21800E-002	-5.75073E-007	0.00000E+000	1.20059E-002	0.00000E+000	6	.....h.....	1490.70
	12	0.13	2.42273E-002	-4.84647E-007	0.00000E+000	2.39966E-002	0.00000E+000	6	.....h.....	1490.70
	18	0.19	3.62162E-002	-1.25181E-007	0.00000E+000	3.59998E-002	0.00000E+000	6	.....h.....	1490.70
	24	0.25	4.82084E-002	4.21809E-007	0.00000E+000	4.80031E-002	0.00000E+000	6	.....h.....	1490.70
	30	0.31	6.01523E-002	1.51114E-006	0.00000E+000	5.99938E-002	0.00000E+000	7	...........	1490.70
	36	0.37	7.21820E-002	2.75628E-006	0.00000E+000	7.19970E-002	0.00000E+000	7	...........	1490.70
	42	0.43	8.42001E-002	3.92345E-006	0.00000E+000	8.40002E-002	0.00000E+000	7	.....h.....	1490.70
	48	0.49	9.62090E-002	5.23295E-006	0.00000E+000	9.60034E-002	0.00000E+000	7	.....h.....	1490.70
	54	0.55	1.08211E-001	6.74518E-006	0.00000E+000	1.07994E-001	0.00000E+000	7	.....h.....	1490.70
	60	0.61	1.20234E-001	8.40911E-006	0.00000E+000	1.19997E-001	0.00000E+000	7	....ih..i..	1490.70
	66	0.67	1.32135E-001	1.01160E-005	0.00000E+000	1.32001E-001	0.00000E+000	8	...........	1490.70
	72	0.73	1.44119E-001	1.20086E-005	0.00000E+000	1.44004E-001	0.00000E+000	8	...........	1490.70
	78	0.79	1.56118E-001	1.41605E-005	0.00000E+000	1.55994E-001	0.00000E+000	8	...........	1490.70
	84	0.85	1.68125E-001	1.64430E-005	0.00000E+000	1.67998E-001	0.00000E+000	8	...........	1490.70
	90	0.91	1.80157E-001	1.88993E-005	0.00000E+000	1.80001E-001	0.00000E+000	8	...........	1490.70
	96	0.97	1.92153E-001	2.15303E-005	0.00000E+000	1.92004E-001	0.00000E+000	8	...........	1490.70
	102	1.03	2.04116E-001	2.42137E-005	0.00000E+000	2.03995E-001	0.00000E+000	8	...........	1490.70
	108	1.09	2.16130E-001	2.70142E-005	0.00000E+000	2.15998E-001	0.00000E+000	8	...........	1490.70
	114	1.15	2.28159E-001	2.98734E-005	0.00000E+000	2.28001E-001	0.00000E+000	8	...........	1490.70
	120	1.21	2.40150E-001	3.27638E-005	0.00000E+000	2.40004E-001	0.00000E+000	8	...........	1490.70
	126	1.27	2.52125E-001	3.58084E-005	0.00000E+000	2.51995E-001	0.00000E+000	8	...........	1490.70
	132	1.33	2.64138E-001	3.89344E-005	0.00000E+000	2.63998E-001	0.00000E+000	8	...........	1490.70
	138	1.39	2.76167E-001	4.20707E-005	0.00000E+000	2.76002E-001	0.00000E+000	8	...........	1490.70
	144	1.45	2.88160E-001	4.52560E-005	0.00000E+000	2.88005E-001	0.00000E+000	8	...........	1490.70
	150	1.51	3.00143E-001	4.84255E-005	0.00000E+000	2.99995E-001	0.00000E+000	8	...........	1490.70
	156	1.57	3.12171E-001	5.17071E-005	0.00000E+000	3.11999E-001	0.00000E+000	8	...........	1490.70
	162	1.63	3.24177E-001	5.50743E-005	0.00000E+000	3.24002E-001	0.00000E+000	8	...........	1489.61
	168	1.69	3.36182E-001	5.85282E-005	0.00000E+000	3.36005E-001	0.00000E+000	8	...........	1489.61
	174	1.75	3.48166E-001	6.21663E-005	0.00000E+000	3.47996E-001	0.00000E+000	8	...........	1489.61
	180	1.81	3.60195E-001	6.59482E-005	0.00000E+000	3.59999E-001	0.00000E+000	8	...........	1489.61
	186	1.87	3.72174E-001	6.98646E-005	0.00000E+000	3.72002E-001	0.00000E+000	8	...........	1489.61
	192	1.93	3.84187E-001	7.38841E-005	0.00000E+000	3.84005E-001	0.00000E+000	8	...........	1489.61
	198	1.99	3.96187E-001	7.80395E-005	0.00000E+000	3.95996E-001	0.00000E+000	8	...........	1489.61
	204	2.05	3.92180E-001	6.12501E-005	0.00000E+000	3.91995E-001	0.00000E+000	8	...........	1489.61
	210	2.11	3.80202E-001	4.52644E-005	0.00000E+000	3.80004E-001	0.00000E+000	8	...........	1489.61
	216	2.17	3.68176E-001	3.50350E-005	0.00000E+000	3.68001E-001	0.00000E+000	8	...........	1489.61
	222	2.23	3.56164E-001	2.78064E-005	0.00000E+000	3.55998E-001	0.00000E+000	8	...........	1489.61
	228	2.29	3.44158E-001	2.23456E-005	0.00000E+000	3.43995E-001	0.00000E+000	8	...........	1489.61
	234	2.35	3.32184E-001	1.80517E-005	0.00000E+000	3.32004E-001	0.00000E+000	8	...........	1489.61
	240	2.41	3.20150E-001	1.44964E-005	0.00000E+000	3.20001E-001	0.00000E+000	8	...........	1489.61
	246	2.47	3.08184E-001	1.14124E-005	0.00000E+000	3.07998E-001	0.00000E+000	8	...........	1489.61
	252	2.53	2.96171E-001	8.67539E-006	0.00000E+000	2.95994E-001	0.00000E+000	8	...........	1489.61
	258	2.59	2.84130E-001	7.24353E-006	0.00000E+000	2.84004E-001	0.00000E+000	7	.....h.....	1489.61
	264	2.65	2.72131E-001	5.33763E-006	0.00000E+000	2.72000E-001	0.00000E+000	7	.....h.....	1489.33
	270	2.71	2.60131E-001	3.93411E-006	0.00000E+000	2.59997E-001	0.00000E+000	7	.....h.....	1489.33
	276	2.77	2.48104E-001	2.96277E-006	0.00000E+000	2.47994E-001	0.00000E+000	7	...........	1489.33
	282	2.83	2.36119E-001	2.36992E-006	0.00000E+000	2.36003E-001	0.00000E+000	7	...........	1489.33
	288	2.89	2.24125E-001	2.07598E-006	0.00000E+000	2.24000E-001	0.00000E+000	7	...........	1489.33
	294	2.95	2.12126E-001	1.90890E-006	0.00000E+000	2.11997E-001	0.00000E+000	7	...........	1489.33
	300	3.01	2.00121E-001	1.78053E-006	0.00000E+000	1.99994E-001	0.00000E+000	7	...........	1489.33
	306	3.07	1.88147E-001	1.70830E-006	0.00000E+000	1.88003E-001	0.00000E+000	7	...........	1489.33
	312	3.13	1.76140E-001	1.57711E-006	0.00000E+000	1.76000E-001	0.00000E+000	7	...........	1489.33
	318	3.19	1.64132E-001	1.45409E-006	0.00000E+000	1.63997E-001	0.00000E+000	7	...........	1489.33
	324	3.25	1.52167E-001	1.29642E-006	0.00000E+000	1.52006E-001	0.00000E+000	7	...........	1489.33
	330	3.31	1.40155E-001	1.20600E-006	0.00000E+000	1.40003E-001	0.00000E+000	7	...........	1489.33
	336	3.37	1.28167E-001	1.03792E-006	0.00000E+000	1.27999E-001	0.00000E+000	7	...........	1489.33
	342	3.43	1.16150E-001	9.56855E-007	0.00000E+000	1.15996E-001	0.00000E+000	7	...........	1489.33
	348	3.49	1.04168E-001	8.36214E-007	0.00000E+000	1.04006E-001	0.00000E+000	7	...........	1489.33
	354	3.55	9.21454E-002	7.49592E-007	0.00000E+000	9.20023E-002	0.00000E+000	7	...........	1489.33
	360	3.61	8.01407E-002	7.51067E-007	0.00000E+000	7.99991E-002	0.00000E+000	7	...........	1489.24
	366	3.67	6.81376E-002	6.53465E-007	0.00000E+000	6.79959E-002	0.00000E+000	7	...........	1489.24
	372	3.73	5.61654E-002	5.41784E-007	0.00000E+000	5.60052E-002	0.00000E+000	7	...........	1489.24
	378	3.79	4.41014E-002	7.65654E-007	0.00000E+000	4.40020E-002	0.00000E+000	7	.....h.....	1489.24
	384	3.85	3.21134E-002	6.54564E-007	0.00000E+000	3.19988E-002	0.00000E+000	7	.....h.....	1489.24
	390	3.91	2.00986E-002	5.69428E-007	0.00000E+000	1.99956E-002	0.00000E+000	7	.....h.....	1489.24
	396	3.97	8.12307E-003	5.43006E-007	0.00000E+000	8.00486E-003	0.00000E+000	7	.....h.....	1489.24
	402	4.03	-3.88084E-003	4.31142E-007	0.00000E+000	-3.99835E-003	0.00000E+000	7	.....h.....	1489.24
	408	4.09	-1.58906E-002	3.44322E-007	0.00000E+000	-1.60016E-002	0.00000E+000	7	.....h.....	1489.24
	414	4.15	-2.79028E-002	2.66753E-007	0.00000E+000	-2.80048E-002	0.00000E+000	7	...........	1489.24
	420	4.21	-3.98792E-002	2.14963E-007	0.00000E+000	-3.99955E-002	0.00000E+000	7	...........	1489.24
	426	4.27	-5.18898E-002	9.82177E-008	0.00000E+000	-5.19987E-002	0.00000E+000	7	...........	1489.24
	432	4.33	-6.38987E-002	-9.13841E-009	0.00000E+000	-6.40019E-002	0.00000E+000	7	...........	1489.24
	438	4.39	-7.59093E-002	-1.00577E-007	0.00000E+000	-7.60051E-002	0.00000E+000	7	...........	1489.24
	444	4.45	-8.79257E-002	-1.78700E-007	0.00000E+000	-8.79958E-002	0.00000E+000	7	...........	1489.24
	450	4.51	-1.00081E-001	7.19906E-007	0.00000E+000	-9.99990E-002	0.00000E+000	6	.....h.....	1489.24
	456	4.57	-1.12092E-001	5.76411E-007	0.00000E+000	-1.12002E-001	0.00000E+000	6	.....h.....	1489.24
	462	4.63	-1.24067E-001	4.19022E-007	0.00000E+000	-1.24005E-001	0.00000E+000	6	.....h.....	1489.33
	468	4.69	-1.36068E-001	2.36871E-007	0.00000E+000	-1.35996E-001	0.00000E+000	6	.....h.....	1489.33
	474	4.75	-1.48056E-001	5.41252E-008	0.00000E+000	-1.47999E-001	0.00000E+000	6	.....h.....	1489.33
	480	4.81	-1.60056E-001	-1.80470E-007	0.00000E+000	-1.60003E-001	0.00000E+000	6	.....h.....	1489.33
	486	4.87	-1.72043E-001	-4.46319E-007	0.00000E+000	-1.72006E-001	0.00000E+000	6	.....h.....	1489.33
	492	4.93	-1.84032E-001	-7.98525E-007	0.00000E+000	-1.83996E-001	0.00000E+000	6	....ih..i..	1489.33
	498	4.99	-1.95969E-001	-2.24917E-006	0.00000E+000	-1.96000E-001	0.00000E+000	7	...........	1489.33
	504	5.05	-2.07996E-001	-2.98904E-006	0.00000E+000	-2.08003E-001	0.00000E+000	7	...........	1489.33
	510	5.11	-2.19975E-001	-3.92302E-006	0.00000E+000	-2.19994E-001	0.00000E+000	7	...........	1489.33
	516	5.17	-2.31963E-001	-5.33666E-006	0.00000E+000	-2.31997E-001	0.00000E+000	7	.....h.....	1489.33
	522	5.23	-2.43996E-001	-7.24944E-006	0.00000E+000	-2.44000E-001	0.00000E+000	7	.....h.....	1489.33
	528	5.29	-2.55887E-001	-9.50659E-006	0.00000E+000	-2.56003E-001	0.00000E+000	8	...........	1489.33
	534	5.35	-2.67895E-001	-1.21703E-005	0.00000E+000	-2.67994E-001	0.00000E+000	8	...........	1489.33
	540	5.41	-2.79912E-001	-1.48086E-005	0.00000E+000	-2.79997E-001	0.00000E+000	8	...........	1489.33
	546	5.47	-2.91907E-001	-1.69615E-005	0.00000E+000	-2.92000E-001	0.00000E+000	8	...........	1489.33
	550	5.51	-2.99911E-001	-1.79556E-005	0.00000E+000	-3.00002E-001	0.00000E+000	8	...........	1489.33
CURVE2	TABLE
	Pt	T	Vf	Im	Vu	Sig	Ach	IERange	Over	Temp
	#	s	V vs. Ref.	A	V	V	V	#	bits	deg C
	551	5.52	-2.97918E-001	-1.57741E-005	0.00000E+000	-2.98002E-001	0.00000E+000	8	...........	1489.33
	558	5.59	-2.83909E-001	-9.39163E-006	0.00000E+000	-2.83998E-001	0.00000E+000	8	...........	1489.33
	565	5.66	-2.69823E-001	-5.94344E-006	0.00000E+000	-2.69994E-001	0.00000E+000	7	.....h.....	1489.24
	572	5.73	-2.55811E-001	-3.90399E-006	0.00000E+000	-2.56003E-001	0.00000E+000	7	.....h.....	1489.24
	579	5.8	-2.41820E-001	-2.48795E-006	0.00000E+000	-2.41999E-001	0.00000E+000	7	.....h.....	1489.24
	586	5.87	-2.27819E-001	-1.61858E-006	0.00000E+000	-2.27996E-001	0.00000E+000	7	.....h.....	1489.24
	593	5.94	-2.13854E-001	-1.06609E-006	0.00000E+000	-2.14004E-001	0.00000E+000	7	.....h.....	1489.24
	600	6.01	-1.99803E-001	3.46139E-007	0.00000E+000	-2.00001E-001	0.00000E+000	7	.....h.....	1489.24
	607	6.08	-1.85589E-001	-1.09023E-006	0.00000E+000	-1.85997E-001	0.00000E+000	6	....ih..i..	1489.24
	614	6.15	-1.71831E-001	2.03478E-007	0.00000E+000	-1.72006E-001	0.00000E+000	7	...........	1489.24
	621	6.22	-1.57680E-001	-1.06944E-006	0.00000E+000	-1.58002E-001	0.00000E+000	6	....ih..i..	1489.24
	628	6.29	-1.43847E-001	1.10095E-007	0.00000E+000	-1.43998E-001	0.00000E+000	7	...........	1489.24
	635	6.36	-1.29723E-001	-1.03795E-006	0.00000E+000	-1.29995E-001	0.00000E+000	6	....ih..i..	1489.24
	642	6.43	-1.15881E-001	7.06628E-008	0.00000E+000	-1.16003E-001	0.00000E+000	7	...........	1489.24
	649	6.5	-1.01747E-001	-9.73259E-007	0.00000E+000	-1.02000E-001	0.00000E+000	6	....ih..i..	1489.24
	656	6.57	-8.77363E-002	-8.60715E-007	0.00000E+000	-8.79958E-002	0.00000E+000	6	....ih.....	1489.24
	663	6.64	-7.37715E-002	-6.96425E-007	0.00000E+000	-7.40046E-002	0.00000E+000	6	.....h.....	1489.33
	670	6.71	-5.97892E-002	-5.92046E-007	0.00000E+000	-6.00008E-002	0.00000E+000	6	.....h.....	1489.33
	677	6.78	-4.58144E-002	-4.29214E-007	0.00000E+000	-4.59971E-002	0.00000E+000	6	.....h.....	1489.33
	684	6.85	-3.18580E-002	-2.62853E-007	0.00000E+000	-3.20058E-002	0.00000E+000	6	.....h.....	1489.33
	691	6.92	-1.78732E-002	-5.82847E-008	0.00000E+000	-1.80021E-002	0.00000E+000	6	.....h.....	1489.33
	698	6.99	-3.89252E-003	1.43719E-007	0.00000E+000	-3.99835E-003	0.00000E+000	6	.....h.....	1489.33
	705	7.06	1.00940E-002	3.46980E-007	0.00000E+000	1.00054E-002	0.00000E+000	6	.....h.....	1489.33
	712	7.13	2.40988E-002	5.46134E-007	0.00000E+000	2.39966E-002	0.00000E+000	6	.....h.....	1489.33
	719	7.2	3.80586E-002	7.44294E-007	0.00000E+000	3.80004E-002	0.00000E+000	6	....ih.....	1489.33
	726	7.27	5.20935E-002	1.48884E-006	0.00000E+000	5.20041E-002	0.00000E+000	7	...........	1489.33
	733	7.34	6.60774E-002	1.68023E-006	0.00000E+000	6.59954E-002	0.00000E+000	7	...........	1489.33
	740	7.41	8.00998E-002	1.82867E-006	0.00000E+000	7.99991E-002	0.00000E+000	7	...........	1489.33
	747	7.48	9.41021E-002	2.04230E-006	0.00000E+000	9.40029E-002	0.00000E+000	7	...........	1489.33
	754	7.55	1.08108E-001	2.30251E-006	0.00000E+000	1.07994E-001	0.00000E+000	7	...........	1489.33
	761	7.62	1.22109E-001	2.62084E-006	0.00000E+000	1.21998E-001	0.00000E+000	7	.....h.....	1489.42
	768	7.69	1.36112E-001	3.00564E-006	0.00000E+000	1.36002E-001	0.00000E+000	7	.....h.....	1489.42
	775	7.76	1.50132E-001	3.49722E-006	0.00000E+000	1.50005E-001	0.00000E+000	7	.....h.....	1489.42
	782	7.83	1.64141E-001	4.15255E-006	0.00000E+000	1.63997E-001	0.00000E+000	7	.....h.....	1489.42
	789	7.9	1.78167E-001	4.92242E-006	0.00000E+000	1.78000E-001	0.00000E+000	7	.....h.....	1489.42
	796	7.97	1.92185E-001	5.89171E-006	0.00000E+000	1.92004E-001	0.00000E+000	7	.....h.....	1489.42
	803	8.04	2.06196E-001	7.05472E-006	0.00000E+000	2.05995E-001	0.00000E+000	7	.....h.....	1489.42
	810	8.11	2.20180E-001	8.56109E-006	0.00000E+000	2.19999E-001	0.00000E+000	7	.....h.....	1489.42
	817	8.18	2.34143E-001	1.12334E-005	0.00000E+000	2.34003E-001	0.00000E+000	8	...........	1489.42
	824	8.25	2.48151E-001	1.30192E-005	0.00000E+000	2.47994E-001	0.00000E+000	8	...........	1489.42
	831	8.32	2.62158E-001	1.50861E-005	0.00000E+000	2.61998E-001	0.00000E+000	8	...........	1489.42
	838	8.39	2.76163E-001	1.71421E-005	0.00000E+000	2.76002E-001	0.00000E+000	8	...........	1489.42
	845	8.46	2.90144E-001	1.92331E-005	0.00000E+000	2.89993E-001	0.00000E+000	8	...........	1489.42
	852	8.53	3.04159E-001	2.13651E-005	0.00000E+000	3.03996E-001	0.00000E+000	8	...........	1489.42
	859	8.6	3.18175E-001	2.36343E-005	0.00000E+000	3.18000E-001	0.00000E+000	8	...........	1489.42
	866	8.67	3.32186E-001	2.61330E-005	0.00000E+000	3.32004E-001	0.00000E+000	8	...........	1489.24
	873	8.74	3.46196E-001	2.91459E-005	0.00000E+000	3.45995E-001	0.00000E+000	8	...........	1489.24
	880	8.81	3.60195E-001	3.27561E-005	0.00000E+000	3.59999E-001	0.00000E+000	8	...........	1489.24
	887	8.88	3.74196E-001	3.71281E-005	0.00000E+000	3.74003E-001	0.00000E+000	8	...........	1489.24
	894	8.95	3.88184E-001	4.22694E-005	0.00000E+000	3.87994E-001	0.00000E+000	8	...........	1489.24
	901	9.02	3.98187E-001	4.41966E-005	0.00000E+000	3.97997E-001	0.00000E+000	8	...........	1489.24
	908	9.09	3.84174E-001	3.07214E-005	0.00000E+000	3.83993E-001	0.00000E+000	8	...........	1489.24
	915	9.16	3.70181E-001	2.29711E-005	0.00000E+000	3.70002E-001	0.00000E+000	8	...........	1489.24
	922	9.23	3.56172E-001	1.76921E-005	0.00000E+000	3.55998E-001	0.00000E+000	8	...........	1489.24
	929	9.3	3.42171E-001	1.37727E-005	0.00000E+000	3.41994E-001	0.00000E+000	8	...........	1489.24
	936	9.37	3.28158E-001	1.06196E-005	0.00000E+000	3.28003E-001	0.00000E+000	8	...........	1489.24
	943	9.44	3.14176E-001	7.94479E-006	0.00000E+000	3.13999E-001	0.00000E+000	8	...........	1489.24
	950	9.51	3.00110E-001	6.63382E-006	0.00000E+000	2.99995E-001	0.00000E+000	7	.....h.....	1489.24
	957	9.58	2.86142E-001	4.47369E-006	0.00000E+000	2.86004E-001	0.00000E+000	7	.....h.....	1489.24
[...]
	13815	138.16	-2.29993E-001	-3.22397E-006	0.00000E+000	-2.29996E-001	0.00000E+000	7	...........	1489.33
	13823	138.24	-2.46030E-001	-4.85302E-006	0.00000E+000	-2.46001E-001	0.00000E+000	7	...........	1489.33
	13831	138.32	-2.62042E-001	-7.16457E-006	0.00000E+000	-2.62005E-001	0.00000E+000	7	.....h.....	1489.33
	13839	138.4	-2.77924E-001	-9.25169E-006	0.00000E+000	-2.77997E-001	0.00000E+000	8	...........	1489.33
	13847	138.48	-2.93907E-001	-1.23140E-005	0.00000E+000	-2.94001E-001	0.00000E+000	8	...........	1489.33
	13850	138.51	-2.99911E-001	-1.33543E-005	0.00000E+000	-3.00002E-001	0.00000E+000	8	...........	1489.33
CURVE21	TABLE
	Pt	T	Vf	Im	Vu	Sig	Ach	IERange	Over	Temp
	#	s	V vs. Ref.	A	V	V	V	#	bits	deg C
	13851	138.52	-2.97927E-001	-1.14680E-005	0.00000E+000	-2.98002E-001	0.00000E+000	8	...........	1489.33
	13853	138.54	-2.93897E-001	-9.40641E-006	0.00000E+000	-2.94001E-001	0.00000E+000	8	...........	1489.33
	13855	138.56	-2.89907E-001	-7.97539E-006	0.00000E+000	-2.90000E-001	0.00000E+000	8	...........	1489.33
	13857	138.58	-2.85817E-001	-5.89424E-006	0.00000E+000	-2.85999E-001	0.00000E+000	7	.....h.....	1489.33
	13859	138.6	-2.81781E-001	-5.05956E-006	0.00000E+000	-2.81998E-001	0.00000E+000	7	.....h.....	1489.33
	13861	138.62	-2.77794E-001	-4.32978E-006	0.00000E+000	-2.77997E-001	0.00000E+000	7	.....h.....	1489.42
	13863	138.64	-2.73801E-001	-3.75319E-006	0.00000E+000	-2.73996E-001	0.00000E+000	7	.....h.....	1489.42
	13865	138.66	-2.69803E-001	-3.19514E-006	0.00000E+000	-2.69994E-001	0.00000E+000	7	.....h.....	1489.42
	13867	138.68	-2.65806E-001	-2.78201E-006	0.00000E+000	-2.66006E-001	0.00000E+000	7	.....h.....	1489.42
	13869	138.7	-2.61814E-001	-2.40106E-006	0.00000E+000	-2.62005E-001	0.00000E+000	7	.....h.....	1489.42
	13871	138.72	-2.57789E-001	-2.06654E-006	0.00000E+000	-2.58004E-001	0.00000E+000	7	.....h.....	1489.42
	13873	138.74	-2.53807E-001	-1.79322E-006	0.00000E+000	-2.54003E-001	0.00000E+000	7	.....h.....	1489.42
	13875	138.76	-2.49810E-001	-1.48432E-006	0.00000E+000	-2.50002E-001	0.00000E+000	7	.....h.....	1489.42
	13877	138.78	-2.45807E-001	-1.30972E-006	0.00000E+000	-2.46001E-001	0.00000E+000	7	.....h.....	1489.42
	13879	138.8	-2.41799E-001	-1.10757E-006	0.00000E+000	-2.41999E-001	0.00000E+000	7	.....h.....	1489.42
	13881	138.82	-2.37810E-001	-1.04115E-006	0.00000E+000	-2.37998E-001	0.00000E+000	7	.....h.....	1489.42
	13883	138.84	-2.33824E-001	-8.59781E-007	0.00000E+000	-2.33997E-001	0.00000E+000	7	.....h.....	1489.42
	13885	138.86	-2.29822E-001	-8.02938E-007	0.00000E+000	-2.29996E-001	0.00000E+000	7	.....h.....	1489.42
	13887	138.88	-2.25781E-001	1.31954E-006	0.00000E+000	-2.25995E-001	0.00000E+000	7	.....h.....	1489.42
	13889	138.9	-2.21476E-001	-1.09451E-006	0.00000E+000	-2.21994E-001	0.00000E+000	6	....ih..i..	1489.42
	13891	138.92	-2.17837E-001	-5.48098E-007	0.00000E+000	-2.18006E-001	0.00000E+000	7	.....h.....	1489.42
	13893	138.94	-2.13784E-001	1.11677E-006	0.00000E+000	-2.14004E-001	0.00000E+000	7	.....h.....	1489.42
	13895	138.96	-2.09528E-001	-1.09451E-006	0.00000E+000	-2.10003E-001	0.00000E+000	6	....ih..i..	1489.42
	13897	138.98	-2.05830E-001	-4.79776E-007	0.00000E+000	-2.06002E-001	0.00000E+000	7	.....h.....	1489.42
	13899	139	-2.01771E-001	9.13569E-007	0.00000E+000	-2.02001E-001	0.00000E+000	7	.....h.....	1489.42
	13901	139.02	-1.97543E-001	-1.09451E-006	0.00000E+000	-1.98000E-001	0.00000E+000	6	....ih..i..	1489.42
	13903	139.04	-1.93544E-001	-1.09304E-006	0.00000E+000	-1.93999E-001	0.00000E+000	6	....ih..i..	1489.42
	13905	139.06	-1.89527E-001	-1.09302E-006	0.00000E+000	-1.89998E-001	0.00000E+000	6	....ih..i..	1489.42
	13907	139.08	-1.85539E-001	-1.09270E-006	0.00000E+000	-1.85997E-001	0.00000E+000	6	....ih..i..	1489.42
	13909	139.1	-1.81561E-001	-1.09225E-006	0.00000E+000	-1.81996E-001	0.00000E+000	6	....ih..i..	1489.42
	13911	139.12	-1.77560E-001	-1.09281E-006	0.00000E+000	-1.77995E-001	0.00000E+000	6	....ih..i..	1489.42
	13913	139.14	-1.73595E-001	-1.09352E-006	0.00000E+000	-1.74006E-001	0.00000E+000	6	....ih..i..	1489.42
	13915	139.16	-1.69620E-001	-1.09381E-006	0.00000E+000	-1.70005E-001	0.00000E+000	6	....ih..i..	1489.42
	13917	139.18	-1.65625E-001	-1.09394E-006	0.00000E+000	-1.66004E-001	0.00000E+000	6	....ih..i..	1489.42
	13919	139.2	-1.61644E-001	-1.09421E-006	0.00000E+000	-1.62003E-001	0.00000E+000	6	....ih..i..	1489.42
	13921	139.22	-1.57655E-001	-1.09439E-006	0.00000E+000	-1.58002E-001	0.00000E+000	6	....ih..i..	1489.42
	13923	139.24	-1.53641E-001	-1.09451E-006	0.00000E+000	-1.54001E-001	0.00000E+000	6	....ih..i..	1489.42
	13925	139.26	-1.49652E-001	-1.09451E-006	0.00000E+000	-1.50000E-001	0.00000E+000	6	....ih..i..	1489.42
	13927	139.28	-1.45657E-001	-1.09451E-006	0.00000E+000	-1.45999E-001	0.00000E+000	6	....ih..i..	1489.42
	13929	139.3	-1.41672E-001	-1.09451E-006	0.00000E+000	-1.41998E-001	0.00000E+000	6	....ih..i..	1489.42
	13931	139.32	-1.37667E-001	-1.09451E-006	0.00000E+000	-1.37997E-001	0.00000E+000	6	....ih..i..	1489.42
	13933	139.34	-1.33671E-001	-1.09451E-006	0.00000E+000	-1.33996E-001	0.00000E+000	6	....ih..i..	1489.42
	13935	139.36	-1.29677E-001	-1.09451E-006	0.00000E+000	-1.29995E-001	0.00000E+000	6	....ih..i..	1489.42
	13937	139.38	-1.25685E-001	-1.09451E-006	0.00000E+000	-1.26006E-001	0.00000E+000	6	....ih..i..	1489.42
	13939	139.4	-1.21697E-001	-1.09451E-006	0.00000E+000	-1.22005E-001	0.00000E+000	6	....ih..i..	1489.42
	13941	139.42	-1.17705E-001	-1.09451E-006	0.00000E+000	-1.18004E-001	0.00000E+000	6	....ih..i..	1489.42
	13943	139.44	-1.13702E-001	-1.09451E-006	0.00000E+000	-1.14003E-001	0.00000E+000	6	....ih..i..	1489.42
	13945	139.46	-1.09692E-001	-1.09451E-006	0.00000E+000	-1.10002E-001	0.00000E+000	6	....ih..i..	1489.42
	13947	139.48	-1.05721E-001	-1.09451E-006	0.00000E+000	-1.06001E-001	0.00000E+000	6	....ih..i..	1489.42
	13949	139.5	-1.01714E-001	-1.09451E-006	0.00000E+000	-1.02000E-001	0.00000E+000	6	....ih..i..	1489.42
	13951	139.52	-9.77210E-002	-1.09451E-006	0.00000E+000	-9.79985E-002	0.00000E+000	6	....ih..i..	1489.42
	13953	139.54	-9.37399E-002	-1.09451E-006	0.00000E+000	-9.39974E-002	0.00000E+000	6	....ih..i..	1489.42
	13955	139.56	-8.97548E-002	-1.09451E-006	0.00000E+000	-8.99963E-002	0.00000E+000	6	....ih..i..	1489.42
	13957	139.58	-8.57454E-002	-1.09451E-006	0.00000E+000	-8.59953E-002	0.00000E+000	6	....ih..i..	1489.42
	13959	139.6	-8.17486E-002	-1.09451E-006	0.00000E+000	-8.19942E-002	0.00000E+000	6	....ih..i..	1489.42
	13961	139.62	-7.77751E-002	-1.09451E-006	0.00000E+000	-7.80056E-002	0.00000E+000	6	....ih..i..	1489.24
	13963	139.64	-7.37732E-002	-1.09451E-006	0.00000E+000	-7.40046E-002	0.00000E+000	6	....ih..i..	1489.24
	13965	139.66	-6.97814E-002	-1.09451E-006	0.00000E+000	-7.00035E-002	0.00000E+000	6	....ih..i..	1489.24
	13967	139.68	-6.57778E-002	-1.09451E-006	0.00000E+000	-6.60024E-002	0.00000E+000	6	....ih..i..	1489.24
	13969	139.7	-6.17701E-002	-1.09451E-006	0.00000E+000	-6.20013E-002	0.00000E+000	6	....ih..i..	1489.24
	13971	139.72	-5.78058E-002	-1.09451E-006	0.00000E+000	-5.80003E-002	0.00000E+000	6	....ih..i..	1489.24
	13973	139.74	-5.38081E-002	-1.09451E-006	0.00000E+000	-5.39992E-002	0.00000E+000	6	....ih..i..	1489.24
	13975	139.76	-4.97737E-002	-1.09451E-006	0.00000E+000	-4.99981E-002	0.00000E+000	6	....ih..i..	1489.24
	13977	139.78	-4.58136E-002	-1.09451E-006	0.00000E+000	-4.59971E-002	0.00000E+000	6	....ih..i..	1489.24
	13979	139.8	-4.18201E-002	-1.09451E-006	0.00000E+000	-4.19960E-002	0.00000E+000	6	....ih..i..	1489.24
	13981	139.82	-3.78132E-002	-1.09451E-006	0.00000E+000	-3.79949E-002	0.00000E+000	6	....ih..i..	1489.24
	13983	139.84	-3.38289E-002	-1.09451E-006	0.00000E+000	-3.40064E-002	0.00000E+000	6	....ih..i..	1489.24
	13985	139.86	-2.98354E-002	-1.09451E-006	0.00000E+000	-3.00053E-002	0.00000E+000	6	....ih..i..	1489.24
	13987	139.88	-2.58227E-002	-1.09451E-006	0.00000E+000	-2.60042E-002	0.00000E+000	6	....ih..i..	1489.24
	13989	139.9	-2.18341E-002	-1.09451E-006	0.00000E+000	-2.20032E-002	0.00000E+000	6	....ih..i..	1489.24
	13991	139.92	-1.78415E-002	-1.09451E-006	0.00000E+000	-1.80021E-002	0.00000E+000	6	....ih..i..	1489.24
	13993	139.94	-1.38513E-002	-1.09451E-006	0.00000E+000	-1.40010E-002	0.00000E+000	6	....ih..i..	1489.24
	13995	139.96	-9.82522E-003	-1.09451E-006	0.00000E+000	-9.99995E-003	0.00000E+000	6	....ih..i..	1489.24
	13997	139.98	-5.83922E-003	-1.09451E-006	0.00000E+000	-5.99888E-003	0.00000E+000	6	....ih..i..	1489.24
	13999	140	-1.85822E-003	-1.09451E-006	0.00000E+000	-1.99781E-003	0.00000E+000	6	....ih..i..	1489.24
	14000	140.01	6.34423E-005	-8.34158E-008	0.00000E+000	2.72319E-006	0.00000E+000	7	...........	1489.24