File: input/ECSA_test/CV_ECSA_#1_#1.DTA
EXPLAIN
TAG	CV
TITLE	LABEL	ECSA	Test Identifier
DATE	LABEL	2/13/2024	Date
TIME	LABEL	8:45:01	Time
NOTES	NOTES	1	Notes...

PSTAT	PSTAT	IFC1010-36068	Potentiostat
VINIT	POTEN	1.00000E-001	F	Initial E (V)
VLIMIT1	POTEN	3.00000E-001	F	Scan Limit 1 (V)
VLIMIT2	POTEN	1.00000E-001	F	Scan Limit 2 (V)
VFINAL	POTEN	1.00000E-001	F	Final E (V)
SCANRATE	QUANT	1.00000E+001	A Real Number
STEPSIZE	QUANT	1.00000E+000	Step Size (mV)
CYCLES	IQUANT	3	Cycles (#)
IMODE	SELECTOR	1	I/E Range Mode
IRANGE	QUANT	3.00000E-001	Max Current (mA)
AREA	QUANT	1.00000E+000	Sample Area (cm^2)
EQDELAY	QUANT	0.00000E+000	Equil. Time (s)
IRCOMP	SELECTOR	0	IRComp
PFCOR	QUANT	5.00000E+001	PF Corr. (ohm)
SAMPLINGMODE	SELECTOR	2	Sampling Mode
EOC	QUANT	0.3246219	Open Circuit (V)
ELECTRODETYPE	SELECTOR	0	Electrode Type
STRIPPING	TOGGLE	F	Used for Stripping
SEQUENCER	TOGGLE	TRUE	Run as Sequence
PSTATMODEL	IQUANT	64	Pstat Model
PSTATSECTION	LABEL	IFC1010-36068	Pstat Section
PSTATSERIALNO	LABEL	36068	Pstat Serial Number
CTRLMODE	IQUANT	1	Control Mode
ELECTROMETER	IQUANT	0	RE=0 or CS=1
IESTAB	IQUANT	2	I/E Stability
CASPEED	IQUANT	4	Control Amp Speed
CONVENTION	IQUANT	1	Current Convention
ICHRANGE	IQUANT	2	Ich Range
ICHRANGEMODE	TOGGLE	F	Ich Auto Range
ICHOFFSETENABLE	TOGGLE	F	Ich Offset Enable
ICHOFFSET	QUANT	0	Ich Offset (V)
ICHFILTER	IQUANT	3	Ich Filter
VCHRANGE	IQUANT	2	Vch Range
VCHRANGEMODE	TOGGLE	F	Vch Auto Range
VCHOFFSETENABLE	TOGGLE	F	Vch Offset Enable
VCHOFFSET	QUANT	0	Vch Offset (V)
VCHFILTER	IQUANT	3	Vch Filter
IERANGELOWERLIMIT	IQUANT	4	I/E Range Lower Limit
IERANGEMODE	TOGGLE	F	I/E AutoRange
IERANGE	IQUANT	9	I/E Range
ACHSELECT	IQUANT	0	Ach Select
ACHRANGE	IQUANT	2	Ach Range
ACHOFFSETENABLE	TOGGLE	F	Ach Offset Enable
ACHOFFSET	QUANT	0	Ach Offset (V)
ACHFILTER	IQUANT	1	Ach Filter
SENSECABLEID	IQUANT	13	Sense Cable ID
PWRCABLEID	IQUANT	13	Power Cable ID
DCCALDATE	LABEL	8/11/2023	DC Calibration Date
ACCALDATE	LABEL	6/2/2023	AC Calibration Date
FRAMEWORKVERSION	LABEL	7.10.3	Framework Version
INSTRUMENTVERSION	LABEL	4.91	Instrument Version
COMMVERSION	LABEL	3.10	Communications Version
CPUPLDVERSION	LABEL	2.22	CPU PLD Version
CTRLPLDVERSION	LABEL	0.00	CTRL PLD Version
PSTATPLDVERSION	LABEL	0.00	PSTAT PLD Version
CURVE1	TABLE
	Pt	T	Vf	Im	Vu	Sig	Ach	IERange	Over	Temp
	#	s	V vs. Ref.	A	V	V	V	#	bits	deg C
	0	0.1	9.99942E-002	-1.76129E-006	0.00000E+000	1.00003E-001	0.00000E+000	9	...........	1468.52
	4	0.5	1.03997E-001	-4.02711E-006	0.00000E+000	1.04002E-001	0.00000E+000	9	...........	1468.52
	8	0.9	1.07988E-001	-4.23467E-006	0.00000E+000	1.08000E-001	0.00000E+000	9	...........	1468.52
	12	1.3	1.11974E-001	-4.24105E-006	0.00000E+000	1.11999E-001	0.00000E+000	9	...........	1468.52
	16	1.7	1.15995E-001	-4.18222E-006	0.00000E+000	1.15997E-001	0.00000E+000	9	...........	1467.88
	20	2.1	1.19983E-001	-4.09026E-006	0.00000E+000	1.19996E-001	0.00000E+000	9	...........	1467.88
	24	2.5	1.23973E-001	-3.98028E-006	0.00000E+000	1.23995E-001	0.00000E+000	9	...........	1467.88
	28	2.9	1.27995E-001	-3.86485E-006	0.00000E+000	1.28006E-001	0.00000E+000	9	...........	1467.88
	32	3.3	1.31998E-001	-3.73393E-006	0.00000E+000	1.32004E-001	0.00000E+000	9	...........	1467.88
	36	3.7	1.35985E-001	-3.59835E-006	0.00000E+000	1.36003E-001	0.00000E+000	9	...........	1467.97
	40	4.1	1.39974E-001	-3.45620E-006	0.00000E+000	1.40002E-001	0.00000E+000	9	...........	1467.97
	44	4.5	1.43985E-001	-3.30960E-006	0.00000E+000	1.44000E-001	0.00000E+000	9	...........	1467.97
	48	4.9	1.47991E-001	-3.15977E-006	0.00000E+000	1.47999E-001	0.00000E+000	9	...........	1467.88
	52	5.3	1.51967E-001	-3.00587E-006	0.00000E+000	1.51997E-001	0.00000E+000	9	...........	1467.88
	56	5.7	1.55980E-001	-2.84590E-006	0.00000E+000	1.55996E-001	0.00000E+000	9	...........	1467.88
	60	6.1	1.59975E-001	-2.68752E-006	0.00000E+000	1.59995E-001	0.00000E+000	9	...........	1467.88
	64	6.5	1.63985E-001	-2.51078E-006	0.00000E+000	1.64006E-001	0.00000E+000	9	...........	1467.88
	68	6.9	1.68000E-001	-2.32936E-006	0.00000E+000	1.68004E-001	0.00000E+000	9	...........	1467.79
	72	7.3	1.71979E-001	-2.15708E-006	0.00000E+000	1.72003E-001	0.00000E+000	9	...........	1467.79
	76	7.7	1.75980E-001	-1.98016E-006	0.00000E+000	1.76002E-001	0.00000E+000	9	...........	1467.43
	80	8.1	1.79976E-001	-1.79539E-006	0.00000E+000	1.80000E-001	0.00000E+000	9	...........	1467.43
	84	8.5	1.83984E-001	-1.61317E-006	0.00000E+000	1.83999E-001	0.00000E+000	9	...........	1467.43
	88	8.9	1.87982E-001	-1.43153E-006	0.00000E+000	1.87997E-001	0.00000E+000	9	...........	1467.97
	92	9.3	1.92004E-001	-1.24999E-006	0.00000E+000	1.91996E-001	0.00000E+000	9	...........	1467.97
	96	9.7	1.95983E-001	-1.06350E-006	0.00000E+000	1.95995E-001	0.00000E+000	9	...........	1467.79
	100	10.1	1.99990E-001	-8.82577E-007	0.00000E+000	2.00006E-001	0.00000E+000	9	...........	1467.79
	104	10.5	2.03973E-001	-7.09180E-007	0.00000E+000	2.04004E-001	0.00000E+000	9	...........	1467.79
	108	10.9	2.07989E-001	-5.33848E-007	0.00000E+000	2.08003E-001	0.00000E+000	9	...........	1467.61
	112	11.3	2.11984E-001	-3.66252E-007	0.00000E+000	2.12001E-001	0.00000E+000	9	...........	1467.61
	116	11.7	2.15963E-001	-2.01794E-007	0.00000E+000	2.16000E-001	0.00000E+000	9	...........	1467.43
	120	12.1	2.19971E-001	-4.66945E-008	0.00000E+000	2.19999E-001	0.00000E+000	9	...........	1467.43
	124	12.5	2.23978E-001	1.09945E-007	0.00000E+000	2.23997E-001	0.00000E+000	9	...........	1467.43
	128	12.9	2.27963E-001	2.61594E-007	0.00000E+000	2.27996E-001	0.00000E+000	9	...........	1467.88
	132	13.3	2.31979E-001	3.97913E-007	0.00000E+000	2.31994E-001	0.00000E+000	9	...........	1467.88
	136	13.7	2.35970E-001	5.30620E-007	0.00000E+000	2.36006E-001	0.00000E+000	9	...........	1467.88
	140	14.1	2.39980E-001	6.59821E-007	0.00000E+000	2.40004E-001	0.00000E+000	9	...........	1467.88
	144	14.5	2.43992E-001	7.74836E-007	0.00000E+000	2.44003E-001	0.00000E+000	9	...........	1467.88
	148	14.9	2.47971E-001	8.86867E-007	0.00000E+000	2.48001E-001	0.00000E+000	9	...........	1467.52
	152	15.3	2.51974E-001	9.93464E-007	0.00000E+000	2.52000E-001	0.00000E+000	9	...........	1467.52
	156	15.7	2.55964E-001	1.09196E-006	0.00000E+000	2.55999E-001	0.00000E+000	9	...........	1467.43
	160	16.1	2.59961E-001	1.18570E-006	0.00000E+000	2.59997E-001	0.00000E+000	9	...........	1467.43
	164	16.5	2.63967E-001	1.28367E-006	0.00000E+000	2.63996E-001	0.00000E+000	9	...........	1467.43
	168	16.9	2.67949E-001	1.37718E-006	0.00000E+000	2.67994E-001	0.00000E+000	9	...........	1467.88
	172	17.3	2.71980E-001	1.46177E-006	0.00000E+000	2.72006E-001	0.00000E+000	9	...........	1467.88
	176	17.7	2.75976E-001	1.54720E-006	0.00000E+000	2.76004E-001	0.00000E+000	9	...........	1467.88
	180	18.1	2.79965E-001	1.63442E-006	0.00000E+000	2.80003E-001	0.00000E+000	9	...........	1467.88
	184	18.5	2.83984E-001	1.71388E-006	0.00000E+000	2.84001E-001	0.00000E+000	9	...........	1467.88
	188	18.9	2.87988E-001	1.79752E-006	0.00000E+000	2.88000E-001	0.00000E+000	9	...........	1467.52
	192	19.3	2.91966E-001	1.87990E-006	0.00000E+000	2.91999E-001	0.00000E+000	9	...........	1467.52
	196	19.7	2.95991E-001	1.95972E-006	0.00000E+000	2.95997E-001	0.00000E+000	9	...........	1467.52
	200	20.1	2.99973E-001	2.04292E-006	0.00000E+000	2.99996E-001	0.00000E+000	9	...........	1467.52
	204	20.5	2.95992E-001	1.31689E-006	0.00000E+000	2.95997E-001	0.00000E+000	9	...........	1467.52
	208	20.9	2.91969E-001	1.06063E-006	0.00000E+000	2.91999E-001	0.00000E+000	9	...........	1467.97
	212	21.3	2.87991E-001	8.43776E-007	0.00000E+000	2.88000E-001	0.00000E+000	9	...........	1467.97
	216	21.7	2.83985E-001	6.47752E-007	0.00000E+000	2.84001E-001	0.00000E+000	9	...........	1467.79
	220	22.1	2.79971E-001	4.63975E-007	0.00000E+000	2.80003E-001	0.00000E+000	9	...........	1467.79
	224	22.5	2.75986E-001	2.89449E-007	0.00000E+000	2.76004E-001	0.00000E+000	9	...........	1467.79
	228	22.9	2.71990E-001	1.17479E-007	0.00000E+000	2.72006E-001	0.00000E+000	9	...........	1467.43
	232	23.3	2.67953E-001	-5.59961E-008	0.00000E+000	2.67994E-001	0.00000E+000	9	...........	1467.43
	236	23.7	2.63963E-001	-2.20370E-007	0.00000E+000	2.63996E-001	0.00000E+000	9	...........	1467.43
	240	24.1	2.59967E-001	-3.83233E-007	0.00000E+000	2.59997E-001	0.00000E+000	9	...........	1467.43
	244	24.5	2.55976E-001	-5.39799E-007	0.00000E+000	2.55999E-001	0.00000E+000	9	...........	1467.43
	248	24.9	2.51972E-001	-7.01617E-007	0.00000E+000	2.52000E-001	0.00000E+000	9	...........	1467.88
	252	25.3	2.47980E-001	-8.72726E-007	0.00000E+000	2.48001E-001	0.00000E+000	9	...........	1467.88
	256	25.7	2.43997E-001	-1.04797E-006	0.00000E+000	2.44003E-001	0.00000E+000	9	...........	1467.70
	260	26.1	2.39979E-001	-1.22404E-006	0.00000E+000	2.40004E-001	0.00000E+000	9	...........	1467.70
	264	26.5	2.35973E-001	-1.40504E-006	0.00000E+000	2.36006E-001	0.00000E+000	9	...........	1467.70
	268	26.9	2.31979E-001	-1.59072E-006	0.00000E+000	2.31994E-001	0.00000E+000	9	...........	1467.43
	272	27.3	2.27966E-001	-1.77688E-006	0.00000E+000	2.27996E-001	0.00000E+000	9	...........	1467.43
	276	27.7	2.23984E-001	-1.96951E-006	0.00000E+000	2.23997E-001	0.00000E+000	9	...........	1467.52
	280	28.1	2.19975E-001	-2.17247E-006	0.00000E+000	2.19999E-001	0.00000E+000	9	...........	1467.52
	284	28.5	2.15973E-001	-2.38254E-006	0.00000E+000	2.16000E-001	0.00000E+000	9	...........	1467.52
	288	28.9	2.11982E-001	-2.59797E-006	0.00000E+000	2.12001E-001	0.00000E+000	9	...........	1467.88
	292	29.3	2.07991E-001	-2.81135E-006	0.00000E+000	2.08003E-001	0.00000E+000	9	...........	1467.88
	296	29.7	2.03973E-001	-3.03622E-006	0.00000E+000	2.04004E-001	0.00000E+000	9	...........	1467.61
	300	30.1	1.99993E-001	-3.25909E-006	0.00000E+000	2.00006E-001	0.00000E+000	9	...........	1467.61
	304	30.5	1.95987E-001	-3.49143E-006	0.00000E+000	1.95995E-001	0.00000E+000	9	...........	1467.61
	308	30.9	1.91997E-001	-3.73390E-006	0.00000E+000	1.91996E-001	0.00000E+000	9	...........	1467.43
	312	31.3	1.87974E-001	-3.95818E-006	0.00000E+000	1.87997E-001	0.00000E+000	9	...........	1467.43
	316	31.7	1.83987E-001	-4.20265E-006	0.00000E+000	1.83999E-001	0.00000E+000	9	...........	1467.97
	320	32.1	1.79976E-001	-4.42715E-006	0.00000E+000	1.80000E-001	0.00000E+000	9	...........	1467.97
	324	32.5	1.75991E-001	-4.65820E-006	0.00000E+000	1.76002E-001	0.00000E+000	9	...........	1467.97
	328	32.9	1.71982E-001	-4.87409E-006	0.00000E+000	1.72003E-001	0.00000E+000	9	...........	1467.97
	332	33.3	1.67993E-001	-5.10047E-006	0.00000E+000	1.68004E-001	0.00000E+000	9	...........	1467.97
	336	33.7	1.63991E-001	-5.31222E-006	0.00000E+000	1.64006E-001	0.00000E+000	9	...........	1467.61
	340	34.1	1.59980E-001	-5.52754E-006	0.00000E+000	1.59995E-001	0.00000E+000	9	...........	1467.61
	344	34.5	1.55984E-001	-5.73174E-006	0.00000E+000	1.55996E-001	0.00000E+000	9	...........	1467.61
	348	34.9	1.51975E-001	-5.92886E-006	0.00000E+000	1.51997E-001	0.00000E+000	9	...........	1467.52
	352	35.3	1.47990E-001	-6.13068E-006	0.00000E+000	1.47999E-001	0.00000E+000	9	...........	1467.52
	356	35.7	1.43995E-001	-6.32692E-006	0.00000E+000	1.44000E-001	0.00000E+000	9	...........	1467.88
	360	36.1	1.39976E-001	-6.50960E-006	0.00000E+000	1.40002E-001	0.00000E+000	9	...........	1467.88
	364	36.5	1.35992E-001	-6.69380E-006	0.00000E+000	1.36003E-001	0.00000E+000	9	...........	1467.88
	368	36.9	1.32006E-001	-6.88805E-006	0.00000E+000	1.32004E-001	0.00000E+000	9	...........	1467.88
	372	37.3	1.27997E-001	-7.08663E-006	0.00000E+000	1.28006E-001	0.00000E+000	9	...........	1467.88
	376	37.7	1.23975E-001	-7.28258E-006	0.00000E+000	1.23995E-001	0.00000E+000	9	...........	1467.43
	380	38.1	1.19988E-001	-7.47639E-006	0.00000E+000	1.19996E-001	0.00000E+000	9	...........	1467.43
	384	38.5	1.15997E-001	-7.67565E-006	0.00000E+000	1.15997E-001	0.00000E+000	9	...........	1467.43
	388	38.9	1.11978E-001	-7.88289E-006	0.00000E+000	1.11999E-001	0.00000E+000	9	...........	1467.52
	392	39.3	1.07985E-001	-8.07781E-006	0.00000E+000	1.08000E-001	0.00000E+000	9	...........	1467.52
	396	39.7	1.04007E-001	-8.27241E-006	0.00000E+000	1.04002E-001	0.00000E+000	9	...........	1467.88
	400	40.1	9.99949E-002	-8.46782E-006	0.00000E+000	1.00003E-001	0.00000E+000	9	...........	1467.88
CURVE2	TABLE
	Pt	T	Vf	Im	Vu	Sig	Ach	IERange	Over	Temp
	#	s	V vs. Ref.	A	V	V	V	#	bits	deg C
	401	40.2	1.00983E-001	-7.95315E-006	0.00000E+000	1.01003E-001	0.00000E+000	9	...........	1467.88
	405	40.6	1.04987E-001	-7.44678E-006	0.00000E+000	1.05001E-001	0.00000E+000	9	...........	1467.81
	409	41	1.08985E-001	-7.04276E-006	0.00000E+000	1.09000E-001	0.00000E+000	9	...........	1467.79
	413	41.4	1.12975E-001	-6.69115E-006	0.00000E+000	1.12999E-001	0.00000E+000	9	...........	1467.79
	417	41.8	1.16973E-001	-6.37518E-006	0.00000E+000	1.16997E-001	0.00000E+000	9	...........	1467.52
	421	42.2	1.20982E-001	-6.07286E-006	0.00000E+000	1.20996E-001	0.00000E+000	9	...........	1467.52
	425	42.6	1.24975E-001	-5.79710E-006	0.00000E+000	1.24994E-001	0.00000E+000	9	...........	1467.45
	429	43	1.28995E-001	-5.53933E-006	0.00000E+000	1.29005E-001	0.00000E+000	9	...........	1467.43
	433	43.4	1.32997E-001	-5.28837E-006	0.00000E+000	1.33004E-001	0.00000E+000	9	...........	1467.43
	437	43.8	1.36978E-001	-5.05448E-006	0.00000E+000	1.37003E-001	0.00000E+000	9	...........	1467.97
	441	44.2	1.40999E-001	-4.82495E-006	0.00000E+000	1.41001E-001	0.00000E+000	9	...........	1467.97
	445	44.6	1.44968E-001	-4.60095E-006	0.00000E+000	1.45000E-001	0.00000E+000	9	...........	1467.76
	449	45	1.48968E-001	-4.37918E-006	0.00000E+000	1.48998E-001	0.00000E+000	9	...........	1467.70
	453	45.4	1.52966E-001	-4.15512E-006	0.00000E+000	1.52997E-001	0.00000E+000	9	...........	1467.70
	457	45.8	1.56990E-001	-3.94158E-006	0.00000E+000	1.56996E-001	0.00000E+000	9	...........	1467.43
	461	46.2	1.60963E-001	-3.72768E-006	0.00000E+000	1.60994E-001	0.00000E+000	9	...........	1467.43
	465	46.6	1.64967E-001	-3.50602E-006	0.00000E+000	1.65005E-001	0.00000E+000	9	...........	1467.43
	469	47	1.68996E-001	-3.29904E-006	0.00000E+000	1.69004E-001	0.00000E+000	9	...........	1467.43
	473	47.4	1.72991E-001	-3.08598E-006	0.00000E+000	1.73003E-001	0.00000E+000	9	...........	1467.43
	477	47.8	1.76966E-001	-2.87408E-006	0.00000E+000	1.77001E-001	0.00000E+000	9	...........	1467.97
	481	48.2	1.80997E-001	-2.66480E-006	0.00000E+000	1.81000E-001	0.00000E+000	9	...........	1467.97
	485	48.6	1.84983E-001	-2.46045E-006	0.00000E+000	1.84998E-001	0.00000E+000	9	...........	1467.68
	489	49	1.88975E-001	-2.25617E-006	0.00000E+000	1.88997E-001	0.00000E+000	9	...........	1467.61
	493	49.4	1.92997E-001	-2.05259E-006	0.00000E+000	1.92996E-001	0.00000E+000	9	...........	1467.61
	497	49.8	1.96982E-001	-1.85772E-006	0.00000E+000	1.96994E-001	0.00000E+000	9	...........	1467.52
	501	50.2	2.00976E-001	-1.66178E-006	0.00000E+000	2.01005E-001	0.00000E+000	9	...........	1467.52
	505	50.6	2.04987E-001	-1.48381E-006	0.00000E+000	2.05004E-001	0.00000E+000	9	...........	1467.52
	509	51	2.08974E-001	-1.29706E-006	0.00000E+000	2.09003E-001	0.00000E+000	9	...........	1467.52
	513	51.4	2.12966E-001	-1.12540E-006	0.00000E+000	2.13001E-001	0.00000E+000	9	...........	1467.52
	517	51.8	2.16965E-001	-9.53862E-007	0.00000E+000	2.17000E-001	0.00000E+000	9	...........	1467.88
	521	52.2	2.20977E-001	-7.93856E-007	0.00000E+000	2.20998E-001	0.00000E+000	9	...........	1467.88
	525	52.6	2.24963E-001	-6.33216E-007	0.00000E+000	2.24997E-001	0.00000E+000	9	...........	1467.66
	529	53	2.28959E-001	-4.85140E-007	0.00000E+000	2.28996E-001	0.00000E+000	9	...........	1467.61
	533	53.4	2.32969E-001	-3.47726E-007	0.00000E+000	2.32994E-001	0.00000E+000	9	...........	1467.61
	537	53.8	2.36977E-001	-2.14097E-007	0.00000E+000	2.37005E-001	0.00000E+000	9	...........	1467.43
	541	54.2	2.40967E-001	-8.56014E-008	0.00000E+000	2.41004E-001	0.00000E+000	9	...........	1467.43
	545	54.6	2.44988E-001	4.08156E-008	0.00000E+000	2.45002E-001	0.00000E+000	9	...........	1467.87
	549	55	2.48972E-001	1.62421E-007	0.00000E+000	2.49001E-001	0.00000E+000	9	...........	1467.97
	553	55.4	2.52967E-001	2.82103E-007	0.00000E+000	2.53000E-001	0.00000E+000	9	...........	1467.97
	557	55.8	2.56982E-001	3.91223E-007	0.00000E+000	2.56998E-001	0.00000E+000	9	...........	1467.97
	561	56.2	2.60963E-001	5.03771E-007	0.00000E+000	2.60997E-001	0.00000E+000	9	...........	1467.97
	565	56.6	2.64966E-001	5.99455E-007	0.00000E+000	2.64995E-001	0.00000E+000	9	...........	1467.60
	569	57	2.68988E-001	6.98861E-007	0.00000E+000	2.68994E-001	0.00000E+000	9	...........	1467.52
	573	57.4	2.72977E-001	7.96707E-007	0.00000E+000	2.73005E-001	0.00000E+000	9	...........	1467.52
	577	57.8	2.76966E-001	8.95152E-007	0.00000E+000	2.77004E-001	0.00000E+000	9	...........	1467.52
	581	58.2	2.80960E-001	9.84329E-007	0.00000E+000	2.81002E-001	0.00000E+000	9	...........	1467.52
	585	58.6	2.84980E-001	1.07678E-006	0.00000E+000	2.85001E-001	0.00000E+000	9	...........	1467.89
	589	59	2.88982E-001	1.16985E-006	0.00000E+000	2.89000E-001	0.00000E+000	9	...........	1467.97
	593	59.4	2.92966E-001	1.25539E-006	0.00000E+000	2.92998E-001	0.00000E+000	9	...........	1467.97
	597	59.8	2.96971E-001	1.34869E-006	0.00000E+000	2.96997E-001	0.00000E+000	9	...........	1467.88
	601	60.2	2.98974E-001	9.76961E-007	0.00000E+000	2.98996E-001	0.00000E+000	9	...........	1467.88
	605	60.6	2.94993E-001	6.88031E-007	0.00000E+000	2.94998E-001	0.00000E+000	9	...........	1467.58
[...]
	865	86.6	1.64967E-001	-3.51454E-006	0.00000E+000	1.65005E-001	0.00000E+000	9	...........	1467.74
	869	87	1.68992E-001	-3.30068E-006	0.00000E+000	1.69004E-001	0.00000E+000	9	...........	1467.70
	873	87.4	1.72984E-001	-3.09470E-006	0.00000E+000	1.73003E-001	0.00000E+000	9	...........	1467.70
	877	87.8	1.76975E-001	-2.88783E-006	0.00000E+000	1.77001E-001	0.00000E+000	9	...........	1467.52
	881	88.2	1.80991E-001	-2.68224E-006	0.00000E+000	1.81000E-001	0.00000E+000	9	...........	1467.52
	885	88.6	1.84980E-001	-2.47356E-006	0.00000E+000	1.84998E-001	0.00000E+000	9	...........	1467.52
	889	89	1.88971E-001	-2.27820E-006	0.00000E+000	1.88997E-001	0.00000E+000	9	...........	1467.52
	893	89.4	1.92997E-001	-2.08760E-006	0.00000E+000	1.92996E-001	0.00000E+000	9	...........	1467.52
	897	89.8	1.96977E-001	-1.89462E-006	0.00000E+000	1.96994E-001	0.00000E+000	9	...........	1467.97
	901	90.2	2.00974E-001	-1.71026E-006	0.00000E+000	2.01005E-001	0.00000E+000	9	...........	1467.97
	905	90.6	2.04985E-001	-1.52788E-006	0.00000E+000	2.05004E-001	0.00000E+000	9	...........	1467.66
	909	91	2.08968E-001	-1.35675E-006	0.00000E+000	2.09003E-001	0.00000E+000	9	...........	1467.61
	913	91.4	2.12969E-001	-1.18079E-006	0.00000E+000	2.13001E-001	0.00000E+000	9	...........	1467.61
	917	91.8	2.16965E-001	-1.02341E-006	0.00000E+000	2.17000E-001	0.00000E+000	9	...........	1467.52
	921	92.2	2.20975E-001	-8.69314E-007	0.00000E+000	2.20998E-001	0.00000E+000	9	...........	1467.52
	925	92.6	2.24963E-001	-7.19020E-007	0.00000E+000	2.24997E-001	0.00000E+000	9	...........	1467.52
	929	93	2.28958E-001	-5.70616E-007	0.00000E+000	2.28996E-001	0.00000E+000	9	...........	1467.52
	933	93.4	2.32977E-001	-4.35564E-007	0.00000E+000	2.32994E-001	0.00000E+000	9	...........	1467.52
	937	93.8	2.36976E-001	-3.01323E-007	0.00000E+000	2.37005E-001	0.00000E+000	9	...........	1467.97
	941	94.2	2.40962E-001	-1.86292E-007	0.00000E+000	2.41004E-001	0.00000E+000	9	...........	1467.97
	945	94.6	2.44976E-001	-6.11971E-008	0.00000E+000	2.45002E-001	0.00000E+000	9	...........	1467.57
	949	95	2.48973E-001	5.40402E-008	0.00000E+000	2.49001E-001	0.00000E+000	9	...........	1467.52
	953	95.4	2.52959E-001	1.66527E-007	0.00000E+000	2.53000E-001	0.00000E+000	9	...........	1467.52
	957	95.8	2.56981E-001	2.74346E-007	0.00000E+000	2.56998E-001	0.00000E+000	9	...........	1467.52
	961	96.2	2.60964E-001	3.76887E-007	0.00000E+000	2.60997E-001	0.00000E+000	9	...........	1467.52
	965	96.6	2.64959E-001	4.73726E-007	0.00000E+000	2.64995E-001	0.00000E+000	9	...........	1467.52
	969	97	2.68986E-001	5.72933E-007	0.00000E+000	2.68994E-001	0.00000E+000	9	...........	1467.52
	973	97.4	2.72975E-001	6.66133E-007	0.00000E+000	2.73005E-001	0.00000E+000	9	...........	1467.52
	977	97.8	2.76975E-001	7.54399E-007	0.00000E+000	2.77004E-001	0.00000E+000	9	...........	1467.97
	981	98.2	2.80963E-001	8.50172E-007	0.00000E+000	2.81002E-001	0.00000E+000	9	...........	1467.97
	985	98.6	2.84982E-001	9.39827E-007	0.00000E+000	2.85001E-001	0.00000E+000	9	...........	1467.57
	989	99	2.88977E-001	1.03104E-006	0.00000E+000	2.89000E-001	0.00000E+000	9	...........	1467.52
	993	99.4	2.92962E-001	1.11690E-006	0.00000E+000	2.92998E-001	0.00000E+000	9	...........	1467.52
	997	99.8	2.96977E-001	1.20696E-006	0.00000E+000	2.96997E-001	0.00000E+000	9	...........	1467.52
	1001	100.2	2.98983E-001	8.50316E-007	0.00000E+000	2.98996E-001	0.00000E+000	9	...........	1467.52
	1005	100.6	2.94994E-001	5.71722E-007	0.00000E+000	2.94998E-001	0.00000E+000	9	...........	1467.52
	1009	101	2.90967E-001	3.66780E-007	0.00000E+000	2.90999E-001	0.00000E+000	9	...........	1467.52
	1013	101.4	2.86986E-001	1.88620E-007	0.00000E+000	2.87000E-001	0.00000E+000	9	...........	1467.52
	1017	101.8	2.82980E-001	3.74539E-008	0.00000E+000	2.83002E-001	0.00000E+000	9	...........	1467.79
	1021	102.2	2.78973E-001	-1.27403E-007	0.00000E+000	2.79003E-001	0.00000E+000	9	...........	1467.79
	1025	102.6	2.74980E-001	-2.80831E-007	0.00000E+000	2.75004E-001	0.00000E+000	9	...........	1467.55
	1029	103	2.70990E-001	-4.20011E-007	0.00000E+000	2.71006E-001	0.00000E+000	9	...........	1467.52
	1033	103.4	2.66955E-001	-5.59042E-007	0.00000E+000	2.66995E-001	0.00000E+000	9	...........	1467.52
	1037	103.8	2.62967E-001	-7.00356E-007	0.00000E+000	2.62996E-001	0.00000E+000	9	...........	1467.43
	1041	104.2	2.58972E-001	-8.24384E-007	0.00000E+000	2.58998E-001	0.00000E+000	9	...........	1467.43
	1045	104.6	2.54956E-001	-9.76000E-007	0.00000E+000	2.54999E-001	0.00000E+000	9	...........	1467.51
	1049	105	2.50970E-001	-1.12094E-006	0.00000E+000	2.51000E-001	0.00000E+000	9	...........	1467.52
	1053	105.4	2.46987E-001	-1.27330E-006	0.00000E+000	2.47002E-001	0.00000E+000	9	...........	1467.52
	1057	105.8	2.42981E-001	-1.42220E-006	0.00000E+000	2.43003E-001	0.00000E+000	9	...........	1467.79
	1061	106.2	2.38974E-001	-1.57607E-006	0.00000E+000	2.39005E-001	0.00000E+000	9	...........	1467.79
	1065	106.6	2.34981E-001	-1.74293E-006	0.00000E+000	2.35006E-001	0.00000E+000	9	...........	1467.55
	1069	107	2.30978E-001	-1.90078E-006	0.00000E+000	2.30995E-001	0.00000E+000	9	...........	1467.52
	1073	107.4	2.26963E-001	-2.08263E-006	0.00000E+000	2.26996E-001	0.00000E+000	9	...........	1467.52
	1077	107.8	2.22971E-001	-2.25769E-006	0.00000E+000	2.22998E-001	0.00000E+000	9	...........	1467.52
	1081	108.2	2.18972E-001	-2.44916E-006	0.00000E+000	2.18999E-001	0.00000E+000	9	...........	1467.52
	1085	108.6	2.14971E-001	-2.63070E-006	0.00000E+000	2.15000E-001	0.00000E+000	9	...........	1467.85
	1089	109	2.10979E-001	-2.82846E-006	0.00000E+000	2.11002E-001	0.00000E+000	9	...........	1467.88
	1093	109.4	2.06976E-001	-3.02183E-006	0.00000E+000	2.07003E-001	0.00000E+000	9	...........	1467.88
	1097	109.8	2.02983E-001	-3.22660E-006	0.00000E+000	2.03005E-001	0.00000E+000	9	...........	1467.70
	1101	110.2	1.99002E-001	-3.44507E-006	0.00000E+000	1.99006E-001	0.00000E+000	9	...........	1467.70
	1105	110.6	1.94986E-001	-3.67105E-006	0.00000E+000	1.94995E-001	0.00000E+000	9	...........	1467.54
	1109	111	1.90966E-001	-3.88292E-006	0.00000E+000	1.90996E-001	0.00000E+000	9	...........	1467.52
	1113	111.4	1.86985E-001	-4.11228E-006	0.00000E+000	1.86998E-001	0.00000E+000	9	...........	1467.52
	1117	111.8	1.82984E-001	-4.33698E-006	0.00000E+000	1.82999E-001	0.00000E+000	9	...........	1467.52
	1121	112.2	1.78968E-001	-4.56450E-006	0.00000E+000	1.79000E-001	0.00000E+000	9	...........	1467.52
	1125	112.6	1.74988E-001	-4.78509E-006	0.00000E+000	1.75002E-001	0.00000E+000	9	...........	1467.93
	1129	113	1.70989E-001	-5.00181E-006	0.00000E+000	1.71003E-001	0.00000E+000	9	...........	1467.97
	1133	113.4	1.67005E-001	-5.21854E-006	0.00000E+000	1.67005E-001	0.00000E+000	9	...........	1467.97
	1137	113.8	1.62985E-001	-5.43807E-006	0.00000E+000	1.63006E-001	0.00000E+000	9	...........	1467.52
	1141	114.2	1.58970E-001	-5.65071E-006	0.00000E+000	1.58995E-001	0.00000E+000	9	...........	1467.52
	1145	114.6	1.54986E-001	-5.86013E-006	0.00000E+000	1.54996E-001	0.00000E+000	9	...........	1467.52
	1149	115	1.50966E-001	-6.06873E-006	0.00000E+000	1.50998E-001	0.00000E+000	9	...........	1467.52
	1153	115.4	1.46991E-001	-6.27982E-006	0.00000E+000	1.46999E-001	0.00000E+000	9	...........	1467.52
	1157	115.8	1.43000E-001	-6.48529E-006	0.00000E+000	1.43001E-001	0.00000E+000	9	...........	1467.52
	1161	116.2	1.38986E-001	-6.69429E-006	0.00000E+000	1.39002E-001	0.00000E+000	9	...........	1467.52
	1165	116.6	1.34996E-001	-6.91376E-006	0.00000E+000	1.35003E-001	0.00000E+000	9	...........	1467.94
	1169	117	1.30997E-001	-7.14235E-006	0.00000E+000	1.31005E-001	0.00000E+000	9	...........	1467.97
	1173	117.4	1.26980E-001	-7.36137E-006	0.00000E+000	1.27006E-001	0.00000E+000	9	...........	1467.97
	1177	117.8	1.22978E-001	-7.58824E-006	0.00000E+000	1.22995E-001	0.00000E+000	9	...........	1467.52
	1181	118.2	1.18988E-001	-7.81989E-006	0.00000E+000	1.18996E-001	0.00000E+000	9	...........	1467.52
	1185	118.6	1.14994E-001	-8.04322E-006	0.00000E+000	1.14998E-001	0.00000E+000	9	...........	1467.52
	1189	119	1.10983E-001	-8.29566E-006	0.00000E+000	1.10999E-001	0.00000E+000	9	...........	1467.52
	1193	119.4	1.06982E-001	-8.53520E-006	0.00000E+000	1.07001E-001	0.00000E+000	9	...........	1467.52
	1197	119.8	1.03005E-001	-8.76510E-006	0.00000E+000	1.03002E-001	0.00000E+000	9	...........	1467.52
	1200	120.1	9.99876E-002	-8.93944E-006	0.00000E+000	1.00003E-001	0.00000E+000	9	...........	1467.52
CURVE4	TABLE
	Pt	T	Vf	Im	Vu	Sig	Ach	IERange	Over	Temp
	#	s	V vs. Ref.	A	V	V	V	#	bits	deg C
	1201	120.2	9.99911E-002	-8.71136E-006	0.00000E+000	1.00003E-001	0.00000E+000	9	...........	1467.52