File: input/ECSA_test/CV_ECSA_#1_#3.DTA
EXPLAIN
TAG	CV
TITLE	LABEL	ECSA	Test Identifier
DATE	LABEL	2/13/2024	Date
TIME	LABEL	8:48:01	Time
NOTES	NOTES	1	Notes...

PSTAT	PSTAT	IFC1010-36068	Potentiostat
VINIT	POTEN	1.00000E-001	F	Initial E (V)
VLIMIT1	POTEN	3.00000E-001	F	Scan Limit 1 (V)
VLIMIT2	POTEN	1.00000E-001	F	Scan Limit 2 (V)
VFINAL	POTEN	1.00000E-001	F	Final E (V)
SCANRATE	QUANT	3.00000E+001	A Real Number
STEPSIZE	QUANT	1.00000E+000	Step Size (mV)
CYCLES	IQUANT	3	Cycles (#)
IMODE	SELECTOR	1	I/E Range Mode
IRANGE	QUANT	3.00000E-001	Max Current (mA)
AREA	QUANT	1.00000E+000	Sample Area (cm^2)
EQDELAY	QUANT	0.00000E+000	Equil. Time (s)
IRCOMP	SELECTOR	0	IRComp
PFCOR	QUANT	5.00000E+001	PF Corr. (ohm)
SAMPLINGMODE	SELECTOR	2	Sampling Mode
EOC	QUANT	0.3246219	Open Circuit (V)
ELECTRODETYPE	SELECTOR	0	Electrode Type
STRIPPING	TOGGLE	F	Used for Stripping
SEQUENCER	TOGGLE	TRUE	Run as Sequence
PSTATMODEL	IQUANT	64	Pstat Model
PSTATSECTION	LABEL	IFC1010-36068	Pstat Section
PSTATSERIALNO	LABEL	36068	Pstat Serial Number
CTRLMODE	IQUANT	1	Control Mode
ELECTROMETER	IQUANT	0	RE=0 or CS=1
IESTAB	IQUANT	2	I/E Stability
CASPEED	IQUANT	4	Control Amp Speed
CONVENTION	IQUANT	1	Current Convention
ICHRANGE	IQUANT	2	Ich Range
ICHRANGEMODE	TOGGLE	F	Ich Auto Range
ICHOFFSETENABLE	TOGGLE	F	Ich Offset Enable
ICHOFFSET	QUANT	0	Ich Offset (V)
ICHFILTER	IQUANT	3	Ich Filter
VCHRANGE	IQUANT	2	Vch Range
VCHRANGEMODE	TOGGLE	F	Vch Auto Range
VCHOFFSETENABLE	TOGGLE	F	Vch Offset Enable
VCHOFFSET	QUANT	0	Vch Offset (V)
VCHFILTER	IQUANT	3	Vch Filter
IERANGELOWERLIMIT	IQUANT	4	I/E Range Lower Limit
IERANGEMODE	TOGGLE	F	I/E AutoRange
IERANGE	IQUANT	9	I/E Range
ACHSELECT	IQUANT	0	Ach Select
ACHRANGE	IQUANT	2	Ach Range
ACHOFFSETENABLE	TOGGLE	F	Ach Offset Enable
ACHOFFSET	QUANT	0	Ach Offset (V)
ACHFILTER	IQUANT	1	Ach Filter
SENSECABLEID	IQUANT	13	Sense Cable ID
PWRCABLEID	IQUANT	13	Power Cable ID
DCCALDATE	LABEL	8/11/2023	DC Calibration Date
ACCALDATE	LABEL	6/2/2023	AC Calibration Date
FRAMEWORKVERSION	LABEL	7.10.3	Framework Version
INSTRUMENTVERSION	LABEL	4.91	Instrument Version
COMMVERSION	LABEL	3.10	Communications Version
CPUPLDVERSION	LABEL	2.22	CPU PLD Version
CTRLPLDVERSION	LABEL	0.00	CTRL PLD Version
PSTATPLDVERSION	LABEL	0.00	PSTAT PLD Version
CURVE1	TABLE
	Pt	T	Vf	Im	Vu	Sig	Ach	IERange	Over	Temp
	#	s	V vs. Ref.	A	V	V	V	#	bits	deg C
	0	0.033333	9.99934E-002	-9.49095E-006	0.00000E+000	1.00003E-001	0.00000E+000	9	...........	1467.52
	4	0.166667	1.04008E-001	-8.24433E-006	0.00000E+000	1.04002E-001	0.00000E+000	9	...........	1467.97
	8	0.3	1.07984E-001	-7.70983E-006	0.00000E+000	1.08000E-001	0.00000E+000	9	...........	1467.97
	12	0.433333	1.11970E-001	-7.23451E-006	0.00000E+000	1.11999E-001	0.00000E+000	9	...........	1467.97
	16	0.566667	1.15992E-001	-6.79135E-006	0.00000E+000	1.15997E-001	0.00000E+000	9	...........	1467.97
	20	0.7	1.19988E-001	-6.37879E-006	0.00000E+000	1.19996E-001	0.00000E+000	9	...........	1467.97
	24	0.833333	1.23980E-001	-6.01086E-006	0.00000E+000	1.23995E-001	0.00000E+000	9	...........	1467.97
	28	0.96667	1.27999E-001	-5.65623E-006	0.00000E+000	1.28006E-001	0.00000E+000	9	...........	1467.97
	32	1.1	1.32004E-001	-5.31452E-006	0.00000E+000	1.32004E-001	0.00000E+000	9	...........	1467.52
	36	1.23333	1.35986E-001	-5.00614E-006	0.00000E+000	1.36003E-001	0.00000E+000	9	...........	1467.52
	40	1.36667	1.39972E-001	-4.70057E-006	0.00000E+000	1.40002E-001	0.00000E+000	9	...........	1467.52
	44	1.5	1.43988E-001	-4.40662E-006	0.00000E+000	1.44000E-001	0.00000E+000	9	...........	1467.52
	48	1.63333	1.47981E-001	-4.14854E-006	0.00000E+000	1.47999E-001	0.00000E+000	9	...........	1467.52
	52	1.76667	1.51965E-001	-3.87495E-006	0.00000E+000	1.51997E-001	0.00000E+000	9	...........	1467.52
	56	1.9	1.55984E-001	-3.60978E-006	0.00000E+000	1.55996E-001	0.00000E+000	9	...........	1467.52
	60	2.03333	1.59976E-001	-3.36666E-006	0.00000E+000	1.59995E-001	0.00000E+000	9	...........	1467.52
	64	2.16667	1.63989E-001	-3.11835E-006	0.00000E+000	1.64006E-001	0.00000E+000	9	...........	1467.97
	68	2.3	1.67990E-001	-2.87864E-006	0.00000E+000	1.68004E-001	0.00000E+000	9	...........	1467.97
	72	2.43333	1.71978E-001	-2.65641E-006	0.00000E+000	1.72003E-001	0.00000E+000	9	...........	1467.97
	76	2.56667	1.75988E-001	-2.42878E-006	0.00000E+000	1.76002E-001	0.00000E+000	9	...........	1467.97
	80	2.7	1.79976E-001	-2.20736E-006	0.00000E+000	1.80000E-001	0.00000E+000	9	...........	1467.97
	84	2.83333	1.83987E-001	-1.99373E-006	0.00000E+000	1.83999E-001	0.00000E+000	9	...........	1467.97
	88	2.96667	1.87980E-001	-1.78450E-006	0.00000E+000	1.87997E-001	0.00000E+000	9	...........	1467.97
	92	3.1	1.92010E-001	-1.56907E-006	0.00000E+000	1.91996E-001	0.00000E+000	9	...........	1467.97
	96	3.23333	1.95988E-001	-1.38411E-006	0.00000E+000	1.95995E-001	0.00000E+000	9	...........	1467.97
	100	3.36667	1.99993E-001	-1.18246E-006	0.00000E+000	2.00006E-001	0.00000E+000	9	...........	1467.97
	104	3.5	2.03970E-001	-9.86527E-007	0.00000E+000	2.04004E-001	0.00000E+000	9	...........	1467.97
	108	3.63333	2.07987E-001	-8.13447E-007	0.00000E+000	2.08003E-001	0.00000E+000	9	...........	1467.97
	112	3.76667	2.11982E-001	-6.33545E-007	0.00000E+000	2.12001E-001	0.00000E+000	9	...........	1467.97
	116	3.9	2.15971E-001	-4.55928E-007	0.00000E+000	2.16000E-001	0.00000E+000	9	...........	1467.97
	120	4.03333	2.19972E-001	-2.98011E-007	0.00000E+000	2.19999E-001	0.00000E+000	9	...........	1467.97
	124	4.16667	2.23979E-001	-1.43631E-007	0.00000E+000	2.23997E-001	0.00000E+000	9	...........	1467.97
	128	4.3	2.27974E-001	1.62877E-008	0.00000E+000	2.27996E-001	0.00000E+000	9	...........	1467.97
	132	4.43333	2.31966E-001	1.52369E-007	0.00000E+000	2.31994E-001	0.00000E+000	9	...........	1467.97
	136	4.56667	2.35975E-001	2.96708E-007	0.00000E+000	2.36006E-001	0.00000E+000	9	...........	1467.97
	140	4.7	2.39979E-001	4.53141E-007	0.00000E+000	2.40004E-001	0.00000E+000	9	...........	1467.97
	144	4.83333	2.43999E-001	5.79447E-007	0.00000E+000	2.44003E-001	0.00000E+000	9	...........	1467.97
	148	4.96667	2.47971E-001	7.03119E-007	0.00000E+000	2.48001E-001	0.00000E+000	9	...........	1467.97
	152	5.1	2.51972E-001	8.41402E-007	0.00000E+000	2.52000E-001	0.00000E+000	9	...........	1467.88
	156	5.23333	2.55967E-001	9.54348E-007	0.00000E+000	2.55999E-001	0.00000E+000	9	...........	1467.88
	160	5.36667	2.59963E-001	1.06189E-006	0.00000E+000	2.59997E-001	0.00000E+000	9	...........	1467.88
	164	5.5	2.63970E-001	1.18810E-006	0.00000E+000	2.63996E-001	0.00000E+000	9	...........	1467.88
	168	5.63333	2.67949E-001	1.29158E-006	0.00000E+000	2.67994E-001	0.00000E+000	9	...........	1467.88
	172	5.76667	2.71984E-001	1.39901E-006	0.00000E+000	2.72006E-001	0.00000E+000	9	...........	1467.88
	176	5.9	2.75978E-001	1.51597E-006	0.00000E+000	2.76004E-001	0.00000E+000	9	...........	1467.88
	180	6.03333	2.79961E-001	1.62572E-006	0.00000E+000	2.80003E-001	0.00000E+000	9	...........	1467.88
	184	6.16667	2.83988E-001	1.72473E-006	0.00000E+000	2.84001E-001	0.00000E+000	9	...........	1467.52
	188	6.3	2.87990E-001	1.84055E-006	0.00000E+000	2.88000E-001	0.00000E+000	9	...........	1467.52
	192	6.43333	2.91969E-001	1.94747E-006	0.00000E+000	2.91999E-001	0.00000E+000	9	...........	1467.52
	196	6.56667	2.95984E-001	2.04951E-006	0.00000E+000	2.95997E-001	0.00000E+000	9	...........	1467.52
	200	6.7	2.99977E-001	2.17643E-006	0.00000E+000	2.99996E-001	0.00000E+000	9	...........	1467.52
	204	6.83333	2.96001E-001	8.40451E-007	0.00000E+000	2.95997E-001	0.00000E+000	9	...........	1467.52
	208	6.96667	2.91979E-001	5.41532E-007	0.00000E+000	2.91999E-001	0.00000E+000	9	...........	1467.52
	212	7.1	2.88005E-001	3.18293E-007	0.00000E+000	2.88000E-001	0.00000E+000	9	...........	1467.52
	216	7.23333	2.84014E-001	1.13420E-007	0.00000E+000	2.84001E-001	0.00000E+000	9	...........	1467.52
	220	7.36667	2.79979E-001	-8.50314E-008	0.00000E+000	2.80003E-001	0.00000E+000	9	...........	1467.52
	224	7.5	2.75995E-001	-2.60146E-007	0.00000E+000	2.76004E-001	0.00000E+000	9	...........	1467.52
	228	7.63333	2.71986E-001	-4.28872E-007	0.00000E+000	2.72006E-001	0.00000E+000	9	...........	1467.52
	232	7.76667	2.67962E-001	-5.98699E-007	0.00000E+000	2.67994E-001	0.00000E+000	9	...........	1467.52
	236	7.9	2.63969E-001	-7.53096E-007	0.00000E+000	2.63996E-001	0.00000E+000	9	...........	1467.52
	240	8.03333	2.59975E-001	-9.05125E-007	0.00000E+000	2.59997E-001	0.00000E+000	9	...........	1467.52
	244	8.16667	2.55984E-001	-1.07397E-006	0.00000E+000	2.55999E-001	0.00000E+000	9	...........	1467.79
	248	8.3	2.51983E-001	-1.21796E-006	0.00000E+000	2.52000E-001	0.00000E+000	9	...........	1467.79
	252	8.43333	2.47987E-001	-1.37120E-006	0.00000E+000	2.48001E-001	0.00000E+000	9	...........	1467.79
	256	8.56667	2.44005E-001	-1.53541E-006	0.00000E+000	2.44003E-001	0.00000E+000	9	...........	1467.79
	260	8.7	2.39994E-001	-1.69436E-006	0.00000E+000	2.40004E-001	0.00000E+000	9	...........	1467.79
	264	8.83333	2.35985E-001	-1.85396E-006	0.00000E+000	2.36006E-001	0.00000E+000	9	...........	1467.79
	268	8.96667	2.31994E-001	-2.03725E-006	0.00000E+000	2.31994E-001	0.00000E+000	9	...........	1467.79
	272	9.1	2.27988E-001	-2.19984E-006	0.00000E+000	2.27996E-001	0.00000E+000	9	...........	1467.43
	276	9.23333	2.23999E-001	-2.38553E-006	0.00000E+000	2.23997E-001	0.00000E+000	9	...........	1467.43
	280	9.36667	2.19985E-001	-2.58421E-006	0.00000E+000	2.19999E-001	0.00000E+000	9	...........	1467.43
	284	9.5	2.15979E-001	-2.76356E-006	0.00000E+000	2.16000E-001	0.00000E+000	9	...........	1467.43
	288	9.6333	2.11986E-001	-2.95898E-006	0.00000E+000	2.12001E-001	0.00000E+000	9	...........	1467.43
	292	9.7667	2.07996E-001	-3.18479E-006	0.00000E+000	2.08003E-001	0.00000E+000	9	...........	1467.43
	296	9.9	2.03982E-001	-3.38724E-006	0.00000E+000	2.04004E-001	0.00000E+000	9	...........	1467.43
	300	10.0333	2.00003E-001	-3.60246E-006	0.00000E+000	2.00006E-001	0.00000E+000	9	...........	1467.43
	304	10.1667	1.95987E-001	-3.84228E-006	0.00000E+000	1.95995E-001	0.00000E+000	9	...........	1467.52
	308	10.3	1.92015E-001	-4.06818E-006	0.00000E+000	1.91996E-001	0.00000E+000	9	...........	1467.52
	312	10.4333	1.87992E-001	-4.30325E-006	0.00000E+000	1.87997E-001	0.00000E+000	9	...........	1467.52
	316	10.5667	1.83989E-001	-4.55057E-006	0.00000E+000	1.83999E-001	0.00000E+000	9	...........	1467.52
	320	10.7	1.79995E-001	-4.79490E-006	0.00000E+000	1.80000E-001	0.00000E+000	9	...........	1467.52
	324	10.8333	1.75999E-001	-5.02396E-006	0.00000E+000	1.76002E-001	0.00000E+000	9	...........	1467.52
	328	10.9667	1.71989E-001	-5.28418E-006	0.00000E+000	1.72003E-001	0.00000E+000	9	...........	1467.52
	332	11.1	1.68006E-001	-5.53736E-006	0.00000E+000	1.68004E-001	0.00000E+000	9	...........	1467.52
	336	11.2333	1.63985E-001	-5.78018E-006	0.00000E+000	1.64006E-001	0.00000E+000	9	...........	1467.52
	340	11.3667	1.59987E-001	-6.04332E-006	0.00000E+000	1.59995E-001	0.00000E+000	9	...........	1467.52
	344	11.5	1.55999E-001	-6.29865E-006	0.00000E+000	1.55996E-001	0.00000E+000	9	...........	1467.52
	348	11.6333	1.51984E-001	-6.54721E-006	0.00000E+000	1.51997E-001	0.00000E+000	9	...........	1467.52
	352	11.7667	1.48003E-001	-6.80805E-006	0.00000E+000	1.47999E-001	0.00000E+000	9	...........	1467.52
	356	11.9	1.43993E-001	-7.07274E-006	0.00000E+000	1.44000E-001	0.00000E+000	9	...........	1467.52
	360	12.0333	1.39994E-001	-7.32552E-006	0.00000E+000	1.40002E-001	0.00000E+000	9	...........	1467.52
	364	12.1667	1.35998E-001	-7.60513E-006	0.00000E+000	1.36003E-001	0.00000E+000	9	...........	1467.70
	368	12.3	1.32007E-001	-7.88029E-006	0.00000E+000	1.32004E-001	0.00000E+000	9	...........	1467.70
	372	12.4333	1.28012E-001	-8.15222E-006	0.00000E+000	1.28006E-001	0.00000E+000	9	...........	1467.70
	376	12.5667	1.23995E-001	-8.46130E-006	0.00000E+000	1.23995E-001	0.00000E+000	9	...........	1467.70
	380	12.7	1.19998E-001	-8.76581E-006	0.00000E+000	1.19996E-001	0.00000E+000	9	...........	1467.70
	384	12.8333	1.16009E-001	-9.07001E-006	0.00000E+000	1.15997E-001	0.00000E+000	9	...........	1467.70
	388	12.9667	1.11983E-001	-9.39612E-006	0.00000E+000	1.11999E-001	0.00000E+000	9	...........	1467.70
	392	13.1	1.08001E-001	-9.71723E-006	0.00000E+000	1.08000E-001	0.00000E+000	9	...........	1467.52
	396	13.2333	1.04018E-001	-1.00321E-005	0.00000E+000	1.04002E-001	0.00000E+000	9	...........	1467.52
	400	13.3667	1.00002E-001	-1.03563E-005	0.00000E+000	1.00003E-001	0.00000E+000	9	...........	1467.52
CURVE2	TABLE
	Pt	T	Vf	Im	Vu	Sig	Ach	IERange	Over	Temp
	#	s	V vs. Ref.	A	V	V	V	#	bits	deg C
	401	13.4	1.00983E-001	-9.26218E-006	0.00000E+000	1.01003E-001	0.00000E+000	9	...........	1467.52
	405	13.5333	1.04980E-001	-8.52565E-006	0.00000E+000	1.05001E-001	0.00000E+000	9	...........	1467.52
	409	13.6667	1.08981E-001	-7.94887E-006	0.00000E+000	1.09000E-001	0.00000E+000	9	...........	1467.52
	413	13.8	1.12964E-001	-7.42377E-006	0.00000E+000	1.12999E-001	0.00000E+000	9	...........	1467.52
	417	13.9333	1.16977E-001	-6.94226E-006	0.00000E+000	1.16997E-001	0.00000E+000	9	...........	1467.52
	421	14.0667	1.20973E-001	-6.51677E-006	0.00000E+000	1.20996E-001	0.00000E+000	9	...........	1467.52
	425	14.2	1.24983E-001	-6.11830E-006	0.00000E+000	1.24994E-001	0.00000E+000	9	...........	1467.52
	429	14.3333	1.29001E-001	-5.74213E-006	0.00000E+000	1.29005E-001	0.00000E+000	9	...........	1467.52
	433	14.4667	1.33001E-001	-5.38984E-006	0.00000E+000	1.33004E-001	0.00000E+000	9	...........	1467.52
	437	14.6	1.36987E-001	-5.06896E-006	0.00000E+000	1.37003E-001	0.00000E+000	9	...........	1467.52
	441	14.7333	1.40999E-001	-4.75461E-006	0.00000E+000	1.41001E-001	0.00000E+000	9	...........	1467.52
	445	14.8667	1.44981E-001	-4.45594E-006	0.00000E+000	1.45000E-001	0.00000E+000	9	...........	1467.52
	449	15	1.48973E-001	-4.18160E-006	0.00000E+000	1.48998E-001	0.00000E+000	9	...........	1467.52
	453	15.1333	1.52961E-001	-3.89996E-006	0.00000E+000	1.52997E-001	0.00000E+000	9	...........	1467.52
	457	15.2667	1.56984E-001	-3.62618E-006	0.00000E+000	1.56996E-001	0.00000E+000	9	...........	1467.52
	461	15.4	1.60969E-001	-3.38059E-006	0.00000E+000	1.60994E-001	0.00000E+000	9	...........	1467.52
	465	15.5333	1.64977E-001	-3.12677E-006	0.00000E+000	1.65005E-001	0.00000E+000	9	...........	1467.52
	469	15.6667	1.68991E-001	-2.87556E-006	0.00000E+000	1.69004E-001	0.00000E+000	9	...........	1467.52
	473	15.8	1.72987E-001	-2.65514E-006	0.00000E+000	1.73003E-001	0.00000E+000	9	...........	1467.52
	477	15.9333	1.76970E-001	-2.42266E-006	0.00000E+000	1.77001E-001	0.00000E+000	9	...........	1467.52
	481	16.0667	1.80990E-001	-2.19567E-006	0.00000E+000	1.81000E-001	0.00000E+000	9	...........	1467.52
	485	16.2	1.84978E-001	-1.98684E-006	0.00000E+000	1.84998E-001	0.00000E+000	9	...........	1467.52
	489	16.3333	1.88973E-001	-1.76695E-006	0.00000E+000	1.88997E-001	0.00000E+000	9	...........	1467.52
	493	16.4667	1.92998E-001	-1.56015E-006	0.00000E+000	1.92996E-001	0.00000E+000	9	...........	1467.52
	497	16.6	1.96980E-001	-1.36605E-006	0.00000E+000	1.96994E-001	0.00000E+000	9	...........	1467.52
	501	16.7333	2.00974E-001	-1.16895E-006	0.00000E+000	2.01005E-001	0.00000E+000	9	...........	1467.52
	505	16.8667	2.04994E-001	-9.73967E-007	0.00000E+000	2.05004E-001	0.00000E+000	9	...........	1467.52
	509	17	2.08981E-001	-8.07526E-007	0.00000E+000	2.09003E-001	0.00000E+000	9	...........	1467.52
	513	17.1333	2.12967E-001	-6.27857E-007	0.00000E+000	2.13001E-001	0.00000E+000	9	...........	1467.52
	517	17.2667	2.16965E-001	-4.53493E-007	0.00000E+000	2.17000E-001	0.00000E+000	9	...........	1467.52
	521	17.4	2.20977E-001	-2.94725E-007	0.00000E+000	2.20998E-001	0.00000E+000	9	...........	1467.52
	525	17.5333	2.24965E-001	-1.34006E-007	0.00000E+000	2.24997E-001	0.00000E+000	9	...........	1467.52
	529	17.6667	2.28964E-001	2.42944E-008	0.00000E+000	2.28996E-001	0.00000E+000	9	...........	1467.52
	533	17.8	2.32973E-001	1.58541E-007	0.00000E+000	2.32994E-001	0.00000E+000	9	...........	1467.52
	537	17.9333	2.36981E-001	2.98626E-007	0.00000E+000	2.37005E-001	0.00000E+000	9	...........	1467.52
	541	18.0667	2.40967E-001	4.49821E-007	0.00000E+000	2.41004E-001	0.00000E+000	9	...........	1467.52
	545	18.2	2.44988E-001	5.70073E-007	0.00000E+000	2.45002E-001	0.00000E+000	9	...........	1467.52
	549	18.3333	2.48967E-001	7.00166E-007	0.00000E+000	2.49001E-001	0.00000E+000	9	...........	1467.52
	553	18.4667	2.52964E-001	8.33862E-007	0.00000E+000	2.53000E-001	0.00000E+000	9	...........	1467.52
	557	18.6	2.56980E-001	9.47859E-007	0.00000E+000	2.56998E-001	0.00000E+000	9	...........	1467.52
	561	18.7333	2.60961E-001	1.06327E-006	0.00000E+000	2.60997E-001	0.00000E+000	9	...........	1467.52
	565	18.8667	2.64960E-001	1.18644E-006	0.00000E+000	2.64995E-001	0.00000E+000	9	...........	1467.52
	569	19	2.68980E-001	1.29072E-006	0.00000E+000	2.68994E-001	0.00000E+000	9	...........	1467.52
	573	19.1333	2.72976E-001	1.39906E-006	0.00000E+000	2.73005E-001	0.00000E+000	9	...........	1467.70
	577	19.2667	2.76974E-001	1.52163E-006	0.00000E+000	2.77004E-001	0.00000E+000	9	...........	1467.70
	581	19.4	2.80968E-001	1.62410E-006	0.00000E+000	2.81002E-001	0.00000E+000	9	...........	1467.70
	585	19.5333	2.84981E-001	1.72682E-006	0.00000E+000	2.85001E-001	0.00000E+000	9	...........	1467.70
	589	19.6667	2.88979E-001	1.85011E-006	0.00000E+000	2.89000E-001	0.00000E+000	9	...........	1467.70
	593	19.8	2.92961E-001	1.95192E-006	0.00000E+000	2.92998E-001	0.00000E+000	9	...........	1467.70
[...]
	797	26.6	1.03013E-001	-1.00947E-005	0.00000E+000	1.03002E-001	0.00000E+000	9	...........	1467.52
	800	26.7	1.00007E-001	-1.03430E-005	0.00000E+000	1.00003E-001	0.00000E+000	9	...........	1467.52
CURVE3	TABLE
	Pt	T	Vf	Im	Vu	Sig	Ach	IERange	Over	Temp
	#	s	V vs. Ref.	A	V	V	V	#	bits	deg C
	801	26.7333	1.00993E-001	-9.25120E-006	0.00000E+000	1.01003E-001	0.00000E+000	9	...........	1467.52
	806	26.9	1.05990E-001	-8.37266E-006	0.00000E+000	1.06001E-001	0.00000E+000	9	...........	1467.52
	811	27.0667	1.10994E-001	-7.67508E-006	0.00000E+000	1.10999E-001	0.00000E+000	9	...........	1467.43
	816	27.2333	1.15998E-001	-7.05598E-006	0.00000E+000	1.15997E-001	0.00000E+000	9	...........	1467.43
	821	27.4	1.20981E-001	-6.49931E-006	0.00000E+000	1.20996E-001	0.00000E+000	9	...........	1467.43
	826	27.5667	1.25968E-001	-6.00953E-006	0.00000E+000	1.25994E-001	0.00000E+000	9	...........	1467.43
	831	27.7333	1.31000E-001	-5.54173E-006	0.00000E+000	1.31005E-001	0.00000E+000	9	...........	1467.43
	836	27.9	1.35986E-001	-5.11065E-006	0.00000E+000	1.36003E-001	0.00000E+000	9	...........	1467.43
	841	28.0667	1.41000E-001	-4.72901E-006	0.00000E+000	1.41001E-001	0.00000E+000	9	...........	1467.61
	846	28.2333	1.45981E-001	-4.35433E-006	0.00000E+000	1.46000E-001	0.00000E+000	9	...........	1467.61
	851	28.4	1.50978E-001	-3.99219E-006	0.00000E+000	1.50998E-001	0.00000E+000	9	...........	1467.61
	856	28.5667	1.55987E-001	-3.67136E-006	0.00000E+000	1.55996E-001	0.00000E+000	9	...........	1467.61
	861	28.7333	1.60966E-001	-3.33978E-006	0.00000E+000	1.60994E-001	0.00000E+000	9	...........	1467.61
	866	28.9	1.65963E-001	-3.02874E-006	0.00000E+000	1.66005E-001	0.00000E+000	9	...........	1467.61
	871	29.0667	1.70983E-001	-2.73811E-006	0.00000E+000	1.71003E-001	0.00000E+000	9	...........	1467.70
	876	29.2333	1.75991E-001	-2.45032E-006	0.00000E+000	1.76002E-001	0.00000E+000	9	...........	1467.70
	881	29.4	1.80991E-001	-2.17008E-006	0.00000E+000	1.81000E-001	0.00000E+000	9	...........	1467.70
	886	29.5667	1.85996E-001	-1.90944E-006	0.00000E+000	1.85998E-001	0.00000E+000	9	...........	1467.70
	891	29.7333	1.90973E-001	-1.63204E-006	0.00000E+000	1.90996E-001	0.00000E+000	9	...........	1467.70
	896	29.9	1.95989E-001	-1.37874E-006	0.00000E+000	1.95995E-001	0.00000E+000	9	...........	1467.70
	901	30.0667	2.00982E-001	-1.14441E-006	0.00000E+000	2.01005E-001	0.00000E+000	9	...........	1467.70
	906	30.2333	2.05995E-001	-8.98236E-007	0.00000E+000	2.06004E-001	0.00000E+000	9	...........	1467.70
	911	30.4	2.10975E-001	-6.83221E-007	0.00000E+000	2.11002E-001	0.00000E+000	9	...........	1467.70
	916	30.5667	2.15965E-001	-4.76145E-007	0.00000E+000	2.16000E-001	0.00000E+000	9	...........	1467.70
	921	30.7333	2.20981E-001	-2.68437E-007	0.00000E+000	2.20998E-001	0.00000E+000	9	...........	1467.70
	926	30.9	2.25961E-001	-7.61405E-008	0.00000E+000	2.25997E-001	0.00000E+000	9	...........	1467.70
	931	31.0667	2.30983E-001	1.03528E-007	0.00000E+000	2.30995E-001	0.00000E+000	9	...........	1467.52
	936	31.2333	2.35969E-001	2.99777E-007	0.00000E+000	2.36006E-001	0.00000E+000	9	...........	1467.52
	941	31.4	2.40971E-001	4.60547E-007	0.00000E+000	2.41004E-001	0.00000E+000	9	...........	1467.52
	946	31.5667	2.45985E-001	6.24118E-007	0.00000E+000	2.46002E-001	0.00000E+000	9	...........	1467.52
	951	31.7333	2.50973E-001	7.86889E-007	0.00000E+000	2.51000E-001	0.00000E+000	9	...........	1467.52
	956	31.9	2.55968E-001	9.25173E-007	0.00000E+000	2.55999E-001	0.00000E+000	9	...........	1467.52
	961	32.0667	2.60965E-001	1.07342E-006	0.00000E+000	2.60997E-001	0.00000E+000	9	...........	1467.70
	966	32.2333	2.65959E-001	1.22102E-006	0.00000E+000	2.65995E-001	0.00000E+000	9	...........	1467.70
	971	32.4	2.70989E-001	1.35595E-006	0.00000E+000	2.71006E-001	0.00000E+000	9	...........	1467.70
	976	32.5667	2.75977E-001	1.48313E-006	0.00000E+000	2.76004E-001	0.00000E+000	9	...........	1467.70
	981	32.7333	2.80969E-001	1.63449E-006	0.00000E+000	2.81002E-001	0.00000E+000	9	...........	1467.70
	986	32.9	2.85980E-001	1.76208E-006	0.00000E+000	2.86001E-001	0.00000E+000	9	...........	1467.70
	991	33.0667	2.90961E-001	1.89870E-006	0.00000E+000	2.90999E-001	0.00000E+000	9	...........	1467.70
	996	33.2333	2.95985E-001	2.03496E-006	0.00000E+000	2.95997E-001	0.00000E+000	9	...........	1467.70
	1001	33.4	2.98996E-001	1.15198E-006	0.00000E+000	2.98996E-001	0.00000E+000	9	...........	1467.70
	1006	33.5667	2.93971E-001	6.63835E-007	0.00000E+000	2.93998E-001	0.00000E+000	9	...........	1467.70
	1011	33.7333	2.88999E-001	3.63031E-007	0.00000E+000	2.89000E-001	0.00000E+000	9	...........	1467.70
	1016	33.9	2.83996E-001	9.82570E-008	0.00000E+000	2.84001E-001	0.00000E+000	9	...........	1467.70
	1021	34.0667	2.78976E-001	-1.36742E-007	0.00000E+000	2.79003E-001	0.00000E+000	9	...........	1467.43
	1026	34.2333	2.73980E-001	-3.47854E-007	0.00000E+000	2.74005E-001	0.00000E+000	9	...........	1467.43
	1031	34.4	2.69005E-001	-5.64137E-007	0.00000E+000	2.68994E-001	0.00000E+000	9	...........	1467.43
	1036	34.5667	2.63981E-001	-7.52629E-007	0.00000E+000	2.63996E-001	0.00000E+000	9	...........	1467.43
	1041	34.7333	2.58985E-001	-9.44041E-007	0.00000E+000	2.58998E-001	0.00000E+000	9	...........	1467.43
	1046	34.9	2.53963E-001	-1.14544E-006	0.00000E+000	2.53999E-001	0.00000E+000	9	...........	1467.43
	1051	35.0667	2.48985E-001	-1.32405E-006	0.00000E+000	2.49001E-001	0.00000E+000	9	...........	1467.43
	1056	35.2333	2.44010E-001	-1.51771E-006	0.00000E+000	2.44003E-001	0.00000E+000	9	...........	1467.43
	1061	35.4	2.38978E-001	-1.72797E-006	0.00000E+000	2.39005E-001	0.00000E+000	9	...........	1467.43
	1066	35.5667	2.34000E-001	-1.92847E-006	0.00000E+000	2.33994E-001	0.00000E+000	9	...........	1467.43
	1071	35.7333	2.28978E-001	-2.13703E-006	0.00000E+000	2.28996E-001	0.00000E+000	9	...........	1467.43
	1076	35.9	2.24002E-001	-2.37075E-006	0.00000E+000	2.23997E-001	0.00000E+000	9	...........	1467.43
	1081	36.0667	2.18993E-001	-2.59565E-006	0.00000E+000	2.18999E-001	0.00000E+000	9	...........	1467.70
	1086	36.2333	2.13960E-001	-2.83758E-006	0.00000E+000	2.14001E-001	0.00000E+000	9	...........	1467.70
	1091	36.4	2.08994E-001	-3.09329E-006	0.00000E+000	2.09003E-001	0.00000E+000	9	...........	1467.70
	1096	36.5667	2.03990E-001	-3.34352E-006	0.00000E+000	2.04004E-001	0.00000E+000	9	...........	1467.70
	1101	36.7333	1.99000E-001	-3.61263E-006	0.00000E+000	1.99006E-001	0.00000E+000	9	...........	1467.70
	1106	36.9	1.93998E-001	-3.89554E-006	0.00000E+000	1.93995E-001	0.00000E+000	9	...........	1467.70
	1111	37.0667	1.88990E-001	-4.17811E-006	0.00000E+000	1.88997E-001	0.00000E+000	9	...........	1467.61
	1116	37.2333	1.83986E-001	-4.48262E-006	0.00000E+000	1.83999E-001	0.00000E+000	9	...........	1467.61
	1121	37.4	1.78972E-001	-4.78329E-006	0.00000E+000	1.79000E-001	0.00000E+000	9	...........	1467.61
	1126	37.5667	1.74001E-001	-5.07902E-006	0.00000E+000	1.74002E-001	0.00000E+000	9	...........	1467.61
	1131	37.7333	1.69003E-001	-5.40033E-006	0.00000E+000	1.69004E-001	0.00000E+000	9	...........	1467.61
	1136	37.9	1.64006E-001	-5.71616E-006	0.00000E+000	1.64006E-001	0.00000E+000	9	...........	1467.61
	1141	38.0667	1.58988E-001	-6.02959E-006	0.00000E+000	1.58995E-001	0.00000E+000	9	...........	1467.43
	1146	38.2333	1.53985E-001	-6.34780E-006	0.00000E+000	1.53997E-001	0.00000E+000	9	...........	1467.43
	1151	38.4	1.48984E-001	-6.67008E-006	0.00000E+000	1.48998E-001	0.00000E+000	9	...........	1467.43
	1156	38.5667	1.43993E-001	-6.98959E-006	0.00000E+000	1.44000E-001	0.00000E+000	9	...........	1467.43
	1161	38.7333	1.38999E-001	-7.33164E-006	0.00000E+000	1.39002E-001	0.00000E+000	9	...........	1467.43
	1166	38.9	1.33993E-001	-7.67667E-006	0.00000E+000	1.34004E-001	0.00000E+000	9	...........	1467.43
	1171	39.0667	1.29004E-001	-8.02201E-006	0.00000E+000	1.29005E-001	0.00000E+000	9	...........	1467.52
	1176	39.2333	1.23977E-001	-8.40192E-006	0.00000E+000	1.23995E-001	0.00000E+000	9	...........	1467.52
	1181	39.4	1.19001E-001	-8.79098E-006	0.00000E+000	1.18996E-001	0.00000E+000	9	...........	1467.52
	1186	39.5667	1.13980E-001	-9.17223E-006	0.00000E+000	1.13998E-001	0.00000E+000	9	...........	1467.52
	1191	39.7333	1.08995E-001	-9.57674E-006	0.00000E+000	1.09000E-001	0.00000E+000	9	...........	1467.52
	1196	39.9	1.04013E-001	-9.98581E-006	0.00000E+000	1.04002E-001	0.00000E+000	9	...........	1467.52
	1200	40.0333	1.00010E-001	-1.03198E-005	0.00000E+000	1.00003E-001	0.00000E+000	9	...........	1467.61
CURVE4	TABLE
	Pt	T	Vf	Im	Vu	Sig	Ach	IERange	Over	Temp
	#	s	V vs. Ref.	A	V	V	V	#	bits	deg C
	1201	40.0667	1.00006E-001	-9.80158E-006	0.00000E+000	1.00003E-001	0.00000E+000	9	...........	1467.79