File: input/ECSA_test/CV_ECSA_#2_#7.DTA
EXPLAIN
TAG	CV
TITLE	LABEL	ECSA	Test Identifier
DATE	LABEL	2/13/2024	Date
TIME	LABEL	12:05:09	Time
NOTES	NOTES	1	Notes...

PSTAT	PSTAT	IFC1010-36068	Potentiostat
VINIT	POTEN	1.00000E-001	F	Initial E (V)
VLIMIT1	POTEN	3.00000E-001	F	Scan Limit 1 (V)
VLIMIT2	POTEN	1.00000E-001	F	Scan Limit 2 (V)
VFINAL	POTEN	1.00000E-001	F	Final E (V)
SCANRATE	QUANT	6.99999E+001	A Real Number
STEPSIZE	QUANT	1.00000E+000	Step Size (mV)
CYCLES	IQUANT	3	Cycles (#)
IMODE	SELECTOR	1	I/E Range Mode
IRANGE	QUANT	3.00000E-001	Max Current (mA)
AREA	QUANT	1.00000E+000	Sample Area (cm^2)
EQDELAY	QUANT	0.00000E+000	Equil. Time (s)
IRCOMP	SELECTOR	0	IRComp
PFCOR	QUANT	5.00000E+001	PF Corr. (ohm)
SAMPLINGMODE	SELECTOR	2	Sampling Mode
EOC	QUANT	0.3246219	Open Circuit (V)
ELECTRODETYPE	SELECTOR	0	Electrode Type
STRIPPING	TOGGLE	F	Used for Stripping
SEQUENCER	TOGGLE	TRUE	Run as Sequence
PSTATMODEL	IQUANT	64	Pstat Model
PSTATSECTION	LABEL	IFC1010-36068	Pstat Section
PSTATSERIALNO	LABEL	36068	Pstat Serial Number
CTRLMODE	IQUANT	1	Control Mode
ELECTROMETER	IQUANT	0	RE=0 or CS=1
IESTAB	IQUANT	2	I/E Stability
CASPEED	IQUANT	4	Control Amp Speed
CONVENTION	IQUANT	1	Current Convention
ICHRANGE	IQUANT	2	Ich Range
ICHRANGEMODE	TOGGLE	F	Ich Auto Range
ICHOFFSETENABLE	TOGGLE	F	Ich Offset Enable
ICHOFFSET	QUANT	0	Ich Offset (V)
ICHFILTER	IQUANT	3	Ich Filter
VCHRANGE	IQUANT	2	Vch Range
VCHRANGEMODE	TOGGLE	F	Vch Auto Range
VCHOFFSETENABLE	TOGGLE	F	Vch Offset Enable
VCHOFFSET	QUANT	0	Vch Offset (V)
VCHFILTER	IQUANT	3	Vch Filter
IERANGELOWERLIMIT	IQUANT	4	I/E Range Lower Limit
IERANGEMODE	TOGGLE	F	I/E AutoRange
IERANGE	IQUANT	9	I/E Range
ACHSELECT	IQUANT	0	Ach Select
ACHRANGE	IQUANT	2	Ach Range
ACHOFFSETENABLE	TOGGLE	F	Ach Offset Enable
ACHOFFSET	QUANT	0	Ach Offset (V)
ACHFILTER	IQUANT	1	Ach Filter
SENSECABLEID	IQUANT	13	Sense Cable ID
PWRCABLEID	IQUANT	13	Power Cable ID
DCCALDATE	LABEL	8/11/2023	DC Calibration Date
ACCALDATE	LABEL	6/2/2023	AC Calibration Date
FRAMEWORKVERSION	LABEL	7.10.3	Framework Version
INSTRUMENTVERSION	LABEL	4.91	Instrument Version
COMMVERSION	LABEL	3.10	Communications Version
CPUPLDVERSION	LABEL	2.22	CPU PLD Version
CTRLPLDVERSION	LABEL	0.00	CTRL PLD Version
PSTATPLDVERSION	LABEL	0.00	PSTAT PLD Version
CURVE1	TABLE
	Pt	T	Vf	Im	Vu	Sig	Ach	IERange	Over	Temp
	#	s	V vs. Ref.	A	V	V	V	#	bits	deg C
	0	0.014283	9.99976E-002	-2.99024E-006	0.00000E+000	1.00003E-001	0.00000E+000	9	...........	1467.52
	5	0.0857	1.04983E-001	-1.38764E-006	0.00000E+000	1.05001E-001	0.00000E+000	9	...........	1467.52
	10	0.157117	1.09972E-001	-1.03873E-006	0.00000E+000	1.10000E-001	0.00000E+000	9	...........	1467.52
	15	0.228533	1.14976E-001	-7.23768E-007	0.00000E+000	1.14998E-001	0.00000E+000	9	...........	1467.52
	20	0.29995	1.19978E-001	-5.00645E-007	0.00000E+000	1.19996E-001	0.00000E+000	9	...........	1467.52
	25	0.371367	1.24966E-001	-2.48052E-007	0.00000E+000	1.24994E-001	0.00000E+000	9	...........	1467.52
	30	0.442783	1.29975E-001	-5.93484E-008	0.00000E+000	1.29993E-001	0.00000E+000	9	...........	1467.52
	35	0.5142	1.34964E-001	1.33059E-007	0.00000E+000	1.34991E-001	0.00000E+000	9	...........	1467.52
	40	0.585617	1.39951E-001	3.08119E-007	0.00000E+000	1.39989E-001	0.00000E+000	9	...........	1467.52
	45	0.657033	1.44960E-001	4.57258E-007	0.00000E+000	1.44987E-001	0.00000E+000	9	...........	1467.52
	50	0.72845	1.49957E-001	6.40816E-007	0.00000E+000	1.49986E-001	0.00000E+000	9	...........	1467.52
	55	0.799867	1.54971E-001	7.71128E-007	0.00000E+000	1.54996E-001	0.00000E+000	9	...........	1467.52
	60	0.871283	1.59962E-001	9.42368E-007	0.00000E+000	1.59995E-001	0.00000E+000	9	...........	1467.52
	65	0.9427	1.64950E-001	1.05514E-006	0.00000E+000	1.64993E-001	0.00000E+000	9	...........	1467.52
	70	1.01412	1.69977E-001	1.20350E-006	0.00000E+000	1.69991E-001	0.00000E+000	9	...........	1467.52
	75	1.08553	1.74963E-001	1.33338E-006	0.00000E+000	1.74989E-001	0.00000E+000	9	...........	1467.52
	80	1.15695	1.79959E-001	1.43812E-006	0.00000E+000	1.79988E-001	0.00000E+000	9	...........	1467.70
	85	1.22837	1.84959E-001	1.59069E-006	0.00000E+000	1.84986E-001	0.00000E+000	9	...........	1467.70
	90	1.29978	1.89952E-001	1.67574E-006	0.00000E+000	1.89984E-001	0.00000E+000	9	...........	1467.70
	95	1.3712	1.94959E-001	1.80906E-006	0.00000E+000	1.94982E-001	0.00000E+000	9	...........	1467.70
	100	1.44262	1.99953E-001	1.90023E-006	0.00000E+000	1.99981E-001	0.00000E+000	9	...........	1467.70
	105	1.51403	2.04953E-001	2.01982E-006	0.00000E+000	2.04979E-001	0.00000E+000	9	...........	1467.70
	110	1.58545	2.09937E-001	2.13981E-006	0.00000E+000	2.09977E-001	0.00000E+000	9	...........	1467.70
	115	1.65687	2.14929E-001	2.22794E-006	0.00000E+000	2.14975E-001	0.00000E+000	9	...........	1467.70
	120	1.72828	2.19935E-001	2.35587E-006	0.00000E+000	2.19974E-001	0.00000E+000	9	...........	1467.70
	125	1.7997	2.24942E-001	2.43282E-006	0.00000E+000	2.24984E-001	0.00000E+000	9	...........	1467.70
	130	1.87112	2.29946E-001	2.56200E-006	0.00000E+000	2.29983E-001	0.00000E+000	9	...........	1467.70
	135	1.94253	2.34946E-001	2.64538E-006	0.00000E+000	2.34981E-001	0.00000E+000	9	...........	1467.70
	140	2.01395	2.39944E-001	2.75515E-006	0.00000E+000	2.39979E-001	0.00000E+000	9	...........	1467.70
	145	2.08537	2.44955E-001	2.86047E-006	0.00000E+000	2.44977E-001	0.00000E+000	9	...........	1467.70
	150	2.15678	2.49948E-001	2.94600E-006	0.00000E+000	2.49976E-001	0.00000E+000	9	...........	1467.52
	155	2.2282	2.54921E-001	3.07787E-006	0.00000E+000	2.54974E-001	0.00000E+000	9	...........	1467.52
	160	2.29962	2.59936E-001	3.15567E-006	0.00000E+000	2.59972E-001	0.00000E+000	9	...........	1467.52
	165	2.37103	2.64918E-001	3.27920E-006	0.00000E+000	2.64970E-001	0.00000E+000	9	...........	1467.52
	170	2.44245	2.69947E-001	3.38889E-006	0.00000E+000	2.69969E-001	0.00000E+000	9	...........	1467.52
	175	2.51387	2.74930E-001	3.49207E-006	0.00000E+000	2.74967E-001	0.00000E+000	9	...........	1467.52
	180	2.58528	2.79919E-001	3.62429E-006	0.00000E+000	2.79965E-001	0.00000E+000	9	...........	1467.52
	185	2.6567	2.84943E-001	3.72326E-006	0.00000E+000	2.84963E-001	0.00000E+000	9	...........	1467.52
	190	2.72812	2.89941E-001	3.88823E-006	0.00000E+000	2.89974E-001	0.00000E+000	9	...........	1467.52
	195	2.79953	2.94959E-001	3.97083E-006	0.00000E+000	2.94973E-001	0.00000E+000	9	...........	1467.52
	200	2.87095	2.99941E-001	4.11888E-006	0.00000E+000	2.99971E-001	0.00000E+000	9	...........	1467.52
	205	2.94237	2.94997E-001	1.34570E-006	0.00000E+000	2.94973E-001	0.00000E+000	9	...........	1467.52
	210	3.01378	2.89972E-001	9.28686E-007	0.00000E+000	2.89974E-001	0.00000E+000	9	...........	1467.52
	215	3.0852	2.84969E-001	6.65218E-007	0.00000E+000	2.84963E-001	0.00000E+000	9	...........	1467.52
	220	3.15662	2.79952E-001	3.99294E-007	0.00000E+000	2.79965E-001	0.00000E+000	9	...........	1467.52
	225	3.22803	2.74953E-001	2.31523E-007	0.00000E+000	2.74967E-001	0.00000E+000	9	...........	1467.52
	230	3.29945	2.69982E-001	2.27052E-008	0.00000E+000	2.69969E-001	0.00000E+000	9	...........	1467.52
	235	3.37087	2.64965E-001	-1.26512E-007	0.00000E+000	2.64970E-001	0.00000E+000	9	...........	1467.52
	240	3.44228	2.59962E-001	-2.77249E-007	0.00000E+000	2.59972E-001	0.00000E+000	9	...........	1467.52
	245	3.5137	2.54944E-001	-4.28726E-007	0.00000E+000	2.54974E-001	0.00000E+000	9	...........	1467.52
	250	3.58512	2.49968E-001	-5.29412E-007	0.00000E+000	2.49976E-001	0.00000E+000	9	...........	1467.52
	255	3.65653	2.44984E-001	-7.03927E-007	0.00000E+000	2.44977E-001	0.00000E+000	9	...........	1467.52
	260	3.72795	2.39974E-001	-7.93231E-007	0.00000E+000	2.39979E-001	0.00000E+000	9	...........	1467.52
	265	3.79937	2.34968E-001	-9.35276E-007	0.00000E+000	2.34981E-001	0.00000E+000	9	...........	1467.52
	270	3.87078	2.29973E-001	-1.05327E-006	0.00000E+000	2.29983E-001	0.00000E+000	9	...........	1467.52
	275	3.9422	2.24972E-001	-1.16830E-006	0.00000E+000	2.24984E-001	0.00000E+000	9	...........	1467.52
	280	4.01362	2.19968E-001	-1.31954E-006	0.00000E+000	2.19974E-001	0.00000E+000	9	...........	1467.52
	285	4.08503	2.14957E-001	-1.39407E-006	0.00000E+000	2.14975E-001	0.00000E+000	9	...........	1467.52
	290	4.15645	2.09967E-001	-1.53631E-006	0.00000E+000	2.09977E-001	0.00000E+000	9	...........	1467.52
	295	4.22787	2.04989E-001	-1.63224E-006	0.00000E+000	2.04979E-001	0.00000E+000	9	...........	1467.52
	300	4.29928	1.99988E-001	-1.76832E-006	0.00000E+000	1.99981E-001	0.00000E+000	9	...........	1467.52
	305	4.3707	1.94998E-001	-1.88347E-006	0.00000E+000	1.94982E-001	0.00000E+000	9	...........	1467.52
	310	4.44212	1.89972E-001	-1.99885E-006	0.00000E+000	1.89984E-001	0.00000E+000	9	...........	1467.52
	315	4.51353	1.84989E-001	-2.14487E-006	0.00000E+000	1.84986E-001	0.00000E+000	9	...........	1467.52
	320	4.58495	1.79988E-001	-2.23843E-006	0.00000E+000	1.79988E-001	0.00000E+000	9	...........	1467.52
	325	4.65637	1.74987E-001	-2.39174E-006	0.00000E+000	1.74989E-001	0.00000E+000	9	...........	1467.52
	330	4.72778	1.69999E-001	-2.49765E-006	0.00000E+000	1.69991E-001	0.00000E+000	9	...........	1467.52
	335	4.7992	1.64972E-001	-2.64098E-006	0.00000E+000	1.64993E-001	0.00000E+000	9	...........	1467.52
	340	4.87062	1.60002E-001	-2.77020E-006	0.00000E+000	1.59995E-001	0.00000E+000	9	...........	1467.52
	345	4.94203	1.55016E-001	-2.88722E-006	0.00000E+000	1.54996E-001	0.00000E+000	9	...........	1467.52
	350	5.01345	1.49988E-001	-3.04458E-006	0.00000E+000	1.49986E-001	0.00000E+000	9	...........	1467.52
	355	5.08487	1.44995E-001	-3.15326E-006	0.00000E+000	1.44987E-001	0.00000E+000	9	...........	1467.52
	360	5.15628	1.39986E-001	-3.30540E-006	0.00000E+000	1.39989E-001	0.00000E+000	9	...........	1467.52
	365	5.2277	1.34995E-001	-3.41879E-006	0.00000E+000	1.34991E-001	0.00000E+000	9	...........	1467.52
	370	5.29912	1.30004E-001	-3.56867E-006	0.00000E+000	1.29993E-001	0.00000E+000	9	...........	1467.52
	375	5.37053	1.25001E-001	-3.70475E-006	0.00000E+000	1.24994E-001	0.00000E+000	9	...........	1467.52
	380	5.44195	1.20006E-001	-3.81740E-006	0.00000E+000	1.19996E-001	0.00000E+000	9	...........	1467.52
	385	5.51337	1.15015E-001	-3.97243E-006	0.00000E+000	1.14998E-001	0.00000E+000	9	...........	1467.52
	390	5.58478	1.10010E-001	-4.08559E-006	0.00000E+000	1.10000E-001	0.00000E+000	9	...........	1467.52
	395	5.6562	1.05013E-001	-4.24958E-006	0.00000E+000	1.05001E-001	0.00000E+000	9	...........	1467.52
	400	5.72762	1.00022E-001	-4.37611E-006	0.00000E+000	1.00003E-001	0.00000E+000	9	...........	1467.52
CURVE2	TABLE
	Pt	T	Vf	Im	Vu	Sig	Ach	IERange	Over	Temp
	#	s	V vs. Ref.	A	V	V	V	#	bits	deg C
	401	5.7419	1.00981E-001	-2.22128E-006	0.00000E+000	1.01003E-001	0.00000E+000	9	...........	1467.52
	406	5.81332	1.05982E-001	-1.56083E-006	0.00000E+000	1.06001E-001	0.00000E+000	9	...........	1467.52
	411	5.88473	1.10976E-001	-1.13275E-006	0.00000E+000	1.10999E-001	0.00000E+000	9	...........	1467.52
	416	5.95615	1.15981E-001	-8.51975E-007	0.00000E+000	1.15997E-001	0.00000E+000	9	...........	1467.52
	421	6.02757	1.20966E-001	-5.70342E-007	0.00000E+000	1.20996E-001	0.00000E+000	9	...........	1467.52
	426	6.09898	1.25958E-001	-3.36577E-007	0.00000E+000	1.25994E-001	0.00000E+000	9	...........	1467.61
	431	6.1704	1.30979E-001	-1.31111E-007	0.00000E+000	1.30992E-001	0.00000E+000	9	...........	1467.61
	436	6.24182	1.35957E-001	9.61831E-008	0.00000E+000	1.35991E-001	0.00000E+000	9	...........	1467.61
	441	6.31323	1.40984E-001	2.44776E-007	0.00000E+000	1.40989E-001	0.00000E+000	9	...........	1467.61
	446	6.38465	1.45960E-001	4.42562E-007	0.00000E+000	1.45987E-001	0.00000E+000	9	...........	1467.61
	451	6.45607	1.50953E-001	5.87530E-007	0.00000E+000	1.50985E-001	0.00000E+000	9	...........	1467.61
	456	6.52748	1.55973E-001	7.39632E-007	0.00000E+000	1.55996E-001	0.00000E+000	9	...........	1467.61
	461	6.5989	1.60960E-001	8.97112E-007	0.00000E+000	1.60994E-001	0.00000E+000	9	...........	1467.61
	466	6.67032	1.65937E-001	1.02278E-006	0.00000E+000	1.65993E-001	0.00000E+000	9	...........	1467.61
	471	6.74173	1.70952E-001	1.19492E-006	0.00000E+000	1.70991E-001	0.00000E+000	9	...........	1467.61
	476	6.81315	1.75958E-001	1.29343E-006	0.00000E+000	1.75989E-001	0.00000E+000	9	...........	1467.61
	481	6.88457	1.80967E-001	1.44428E-006	0.00000E+000	1.80987E-001	0.00000E+000	9	...........	1467.61
	486	6.95598	1.85965E-001	1.54341E-006	0.00000E+000	1.85986E-001	0.00000E+000	9	...........	1467.61
	491	7.0274	1.90945E-001	1.67325E-006	0.00000E+000	1.90984E-001	0.00000E+000	9	...........	1467.61
	496	7.09882	1.95957E-001	1.79035E-006	0.00000E+000	1.95982E-001	0.00000E+000	9	...........	1467.61
	501	7.17023	2.00947E-001	1.88538E-006	0.00000E+000	2.00980E-001	0.00000E+000	9	...........	1467.61
	506	7.24165	2.05952E-001	2.01924E-006	0.00000E+000	2.05979E-001	0.00000E+000	9	...........	1467.61
	511	7.31307	2.10936E-001	2.10445E-006	0.00000E+000	2.10977E-001	0.00000E+000	9	...........	1467.61
	516	7.38448	2.15932E-001	2.23511E-006	0.00000E+000	2.15975E-001	0.00000E+000	9	...........	1467.61
	521	7.4559	2.20953E-001	2.34067E-006	0.00000E+000	2.20986E-001	0.00000E+000	9	...........	1467.61
	526	7.52732	2.25940E-001	2.43512E-006	0.00000E+000	2.25984E-001	0.00000E+000	9	...........	1467.61
	531	7.59873	2.30952E-001	2.54606E-006	0.00000E+000	2.30982E-001	0.00000E+000	9	...........	1467.61
	536	7.67015	2.35944E-001	2.62710E-006	0.00000E+000	2.35981E-001	0.00000E+000	9	...........	1467.61
	541	7.74157	2.40931E-001	2.75367E-006	0.00000E+000	2.40979E-001	0.00000E+000	9	...........	1467.61
	546	7.81298	2.45952E-001	2.83861E-006	0.00000E+000	2.45977E-001	0.00000E+000	9	...........	1467.61
	551	7.8844	2.50947E-001	2.95601E-006	0.00000E+000	2.50975E-001	0.00000E+000	9	...........	1467.61
	556	7.95582	2.55931E-001	3.05374E-006	0.00000E+000	2.55974E-001	0.00000E+000	9	...........	1467.61
	561	8.02723	2.60926E-001	3.15197E-006	0.00000E+000	2.60972E-001	0.00000E+000	9	...........	1467.61
	566	8.09865	2.65913E-001	3.28536E-006	0.00000E+000	2.65970E-001	0.00000E+000	9	...........	1467.52
	571	8.17007	2.70941E-001	3.37365E-006	0.00000E+000	2.70968E-001	0.00000E+000	9	...........	1467.52
	576	8.24148	2.75934E-001	3.51659E-006	0.00000E+000	2.75967E-001	0.00000E+000	9	...........	1467.52
	581	8.3129	2.80909E-001	3.61552E-006	0.00000E+000	2.80965E-001	0.00000E+000	9	...........	1467.52
	586	8.38432	2.85930E-001	3.74151E-006	0.00000E+000	2.85963E-001	0.00000E+000	9	...........	1467.52
	591	8.45573	2.90930E-001	3.86566E-006	0.00000E+000	2.90974E-001	0.00000E+000	9	...........	1467.52
	596	8.52715	2.95963E-001	3.97987E-006	0.00000E+000	2.95972E-001	0.00000E+000	9	...........	1467.52
	601	8.59857	2.98967E-001	1.95309E-006	0.00000E+000	2.98971E-001	0.00000E+000	9	...........	1467.52
	606	8.66998	2.93960E-001	1.21383E-006	0.00000E+000	2.93973E-001	0.00000E+000	9	...........	1467.52
	611	8.7414	2.88964E-001	8.52597E-007	0.00000E+000	2.88962E-001	0.00000E+000	9	...........	1467.52
	616	8.81282	2.83973E-001	5.71548E-007	0.00000E+000	2.83964E-001	0.00000E+000	9	...........	1467.52
	621	8.88423	2.78953E-001	3.60626E-007	0.00000E+000	2.78966E-001	0.00000E+000	9	...........	1467.52
	626	8.95565	2.73961E-001	1.63580E-007	0.00000E+000	2.73967E-001	0.00000E+000	9	...........	1467.52
	631	9.02707	2.68983E-001	-2.59033E-008	0.00000E+000	2.68969E-001	0.00000E+000	9	...........	1467.52
	636	9.09848	2.63963E-001	-1.65999E-007	0.00000E+000	2.63971E-001	0.00000E+000	9	...........	1467.52
	641	9.1699	2.58972E-001	-3.39929E-007	0.00000E+000	2.58973E-001	0.00000E+000	9	...........	1467.52
	646	9.24132	2.53950E-001	-4.47749E-007	0.00000E+000	2.53974E-001	0.00000E+000	9	...........	1467.52
	651	9.31273	2.48967E-001	-6.00980E-007	0.00000E+000	2.48976E-001	0.00000E+000	9	...........	1467.52
	656	9.38415	2.43992E-001	-7.19052E-007	0.00000E+000	2.43978E-001	0.00000E+000	9	...........	1467.52
	661	9.45557	2.38969E-001	-8.42736E-007	0.00000E+000	2.38980E-001	0.00000E+000	9	...........	1467.52
	666	9.527	2.33989E-001	-9.89380E-007	0.00000E+000	2.33981E-001	0.00000E+000	9	...........	1467.52
	671	9.5984	2.28973E-001	-1.07970E-006	0.00000E+000	2.28983E-001	0.00000E+000	9	...........	1467.52
	676	9.6698	2.23988E-001	-1.22942E-006	0.00000E+000	2.23985E-001	0.00000E+000	9	...........	1467.52
	681	9.7412	2.18973E-001	-1.32332E-006	0.00000E+000	2.18974E-001	0.00000E+000	9	...........	1467.52
	686	9.8127	2.13956E-001	-1.45496E-006	0.00000E+000	2.13976E-001	0.00000E+000	9	...........	1467.52
	691	9.8841	2.08971E-001	-1.57366E-006	0.00000E+000	2.08978E-001	0.00000E+000	9	...........	1467.52
	696	9.9555	2.03977E-001	-1.67863E-006	0.00000E+000	2.03979E-001	0.00000E+000	9	...........	1467.52
	701	10.0269	1.98988E-001	-1.81378E-006	0.00000E+000	1.98981E-001	0.00000E+000	9	...........	1467.52
	706	10.0983	1.93995E-001	-1.91427E-006	0.00000E+000	1.93983E-001	0.00000E+000	9	...........	1467.52
	711	10.1697	1.88991E-001	-2.05998E-006	0.00000E+000	1.88984E-001	0.00000E+000	9	...........	1467.52
	716	10.2412	1.83998E-001	-2.16951E-006	0.00000E+000	1.83986E-001	0.00000E+000	9	...........	1467.52
	721	10.3126	1.78980E-001	-2.29261E-006	0.00000E+000	1.78988E-001	0.00000E+000	9	...........	1467.52
	726	10.384	1.73987E-001	-2.43477E-006	0.00000E+000	1.73990E-001	0.00000E+000	9	...........	1467.52
	731	10.4554	1.68999E-001	-2.54091E-006	0.00000E+000	1.68991E-001	0.00000E+000	9	...........	1467.52
	736	10.5268	1.63998E-001	-2.69352E-006	0.00000E+000	1.63993E-001	0.00000E+000	9	...........	1467.52
[...]
	796	11.3838	1.04017E-001	-4.30357E-006	0.00000E+000	1.04002E-001	0.00000E+000	9	...........	1467.52
	800	11.441	1.00011E-001	-4.39961E-006	0.00000E+000	1.00003E-001	0.00000E+000	9	...........	1467.52
CURVE3	TABLE
	Pt	T	Vf	Im	Vu	Sig	Ach	IERange	Over	Temp
	#	s	V vs. Ref.	A	V	V	V	#	bits	deg C
	801	11.4552	1.00976E-001	-2.25133E-006	0.00000E+000	1.01003E-001	0.00000E+000	9	...........	1467.52
	806	11.5267	1.05974E-001	-1.59358E-006	0.00000E+000	1.06001E-001	0.00000E+000	9	...........	1467.52
	811	11.5981	1.10965E-001	-1.17532E-006	0.00000E+000	1.10999E-001	0.00000E+000	9	...........	1467.52
	816	11.6695	1.15988E-001	-8.81911E-007	0.00000E+000	1.15997E-001	0.00000E+000	9	...........	1467.52
	821	11.7409	1.20975E-001	-6.08893E-007	0.00000E+000	1.20996E-001	0.00000E+000	9	...........	1467.52
	826	11.8123	1.25963E-001	-3.73140E-007	0.00000E+000	1.25994E-001	0.00000E+000	9	...........	1467.52
	831	11.8837	1.30977E-001	-1.55435E-007	0.00000E+000	1.30992E-001	0.00000E+000	9	...........	1467.52
	836	11.9552	1.35956E-001	5.50589E-008	0.00000E+000	1.35991E-001	0.00000E+000	9	...........	1467.52
	841	12.0266	1.40978E-001	2.11877E-007	0.00000E+000	1.40989E-001	0.00000E+000	9	...........	1467.52
	846	12.098	1.45955E-001	4.08416E-007	0.00000E+000	1.45987E-001	0.00000E+000	9	...........	1467.52
	851	12.1694	1.50950E-001	5.70184E-007	0.00000E+000	1.50985E-001	0.00000E+000	9	...........	1467.52
	856	12.2408	1.55977E-001	7.21272E-007	0.00000E+000	1.55996E-001	0.00000E+000	9	...........	1467.52
	861	12.3122	1.60963E-001	8.89823E-007	0.00000E+000	1.60994E-001	0.00000E+000	9	...........	1467.52
	866	12.3837	1.65943E-001	1.00708E-006	0.00000E+000	1.65993E-001	0.00000E+000	9	...........	1467.52
	871	12.4551	1.70953E-001	1.17477E-006	0.00000E+000	1.70991E-001	0.00000E+000	9	...........	1467.52
	876	12.5265	1.75961E-001	1.27959E-006	0.00000E+000	1.75989E-001	0.00000E+000	9	...........	1467.52
	881	12.5979	1.80966E-001	1.41660E-006	0.00000E+000	1.80987E-001	0.00000E+000	9	...........	1467.52
	886	12.6693	1.85970E-001	1.53179E-006	0.00000E+000	1.85986E-001	0.00000E+000	9	...........	1467.52
	891	12.7407	1.90951E-001	1.65142E-006	0.00000E+000	1.90984E-001	0.00000E+000	9	...........	1467.52
	896	12.8122	1.95960E-001	1.78466E-006	0.00000E+000	1.95982E-001	0.00000E+000	9	...........	1467.52
	901	12.8836	2.00943E-001	1.87049E-006	0.00000E+000	2.00980E-001	0.00000E+000	9	...........	1467.52
	906	12.955	2.05949E-001	2.00560E-006	0.00000E+000	2.05979E-001	0.00000E+000	9	...........	1467.52
	911	13.0264	2.10947E-001	2.08613E-006	0.00000E+000	2.10977E-001	0.00000E+000	9	...........	1467.52
	916	13.0978	2.15938E-001	2.21660E-006	0.00000E+000	2.15975E-001	0.00000E+000	9	...........	1467.79
	921	13.1692	2.20963E-001	2.33463E-006	0.00000E+000	2.20986E-001	0.00000E+000	9	...........	1467.79
	926	13.2407	2.25940E-001	2.42775E-006	0.00000E+000	2.25984E-001	0.00000E+000	9	...........	1467.79
	931	13.3121	2.30952E-001	2.54068E-006	0.00000E+000	2.30982E-001	0.00000E+000	9	...........	1467.79
	936	13.3835	2.35942E-001	2.61825E-006	0.00000E+000	2.35981E-001	0.00000E+000	9	...........	1467.79
	941	13.4549	2.40934E-001	2.74657E-006	0.00000E+000	2.40979E-001	0.00000E+000	9	...........	1467.79
	946	13.5263	2.45945E-001	2.83432E-006	0.00000E+000	2.45977E-001	0.00000E+000	9	...........	1467.79
	951	13.5977	2.50938E-001	2.95212E-006	0.00000E+000	2.50975E-001	0.00000E+000	9	...........	1467.79
	956	13.6692	2.55937E-001	3.04329E-006	0.00000E+000	2.55974E-001	0.00000E+000	9	...........	1467.79
	961	13.7406	2.60924E-001	3.15380E-006	0.00000E+000	2.60972E-001	0.00000E+000	9	...........	1467.79
	966	13.812	2.65933E-001	3.28056E-006	0.00000E+000	2.65970E-001	0.00000E+000	9	...........	1467.79
	971	13.8834	2.70947E-001	3.36492E-006	0.00000E+000	2.70968E-001	0.00000E+000	9	...........	1467.79
	976	13.9548	2.75932E-001	3.50895E-006	0.00000E+000	2.75967E-001	0.00000E+000	9	...........	1467.79
	981	14.0262	2.80918E-001	3.59479E-006	0.00000E+000	2.80965E-001	0.00000E+000	9	...........	1467.79
	986	14.0977	2.85931E-001	3.73445E-006	0.00000E+000	2.85963E-001	0.00000E+000	9	...........	1467.52
	991	14.1691	2.90927E-001	3.85354E-006	0.00000E+000	2.90974E-001	0.00000E+000	9	...........	1467.52
	996	14.2405	2.95951E-001	3.98057E-006	0.00000E+000	2.95972E-001	0.00000E+000	9	...........	1467.52
	1001	14.3119	2.98973E-001	1.93964E-006	0.00000E+000	2.98971E-001	0.00000E+000	9	...........	1467.52
	1006	14.3833	2.93962E-001	1.21071E-006	0.00000E+000	2.93973E-001	0.00000E+000	9	...........	1467.52
	1011	14.4547	2.88968E-001	8.47529E-007	0.00000E+000	2.88962E-001	0.00000E+000	9	...........	1467.52
	1016	14.5262	2.83976E-001	5.66949E-007	0.00000E+000	2.83964E-001	0.00000E+000	9	...........	1467.52
	1021	14.5976	2.78948E-001	3.53999E-007	0.00000E+000	2.78966E-001	0.00000E+000	9	...........	1467.52
	1026	14.669	2.73966E-001	1.53679E-007	0.00000E+000	2.73967E-001	0.00000E+000	9	...........	1467.52
	1031	14.7404	2.68989E-001	-2.20053E-008	0.00000E+000	2.68969E-001	0.00000E+000	9	...........	1467.52
	1036	14.8118	2.63962E-001	-1.68143E-007	0.00000E+000	2.63971E-001	0.00000E+000	9	...........	1467.52
	1041	14.8832	2.58966E-001	-3.33302E-007	0.00000E+000	2.58973E-001	0.00000E+000	9	...........	1467.52
	1046	14.9547	2.53950E-001	-4.58312E-007	0.00000E+000	2.53974E-001	0.00000E+000	9	...........	1467.52
	1051	15.0261	2.48964E-001	-6.12830E-007	0.00000E+000	2.48976E-001	0.00000E+000	9	...........	1467.52
	1056	15.0975	2.43984E-001	-7.14530E-007	0.00000E+000	2.43978E-001	0.00000E+000	9	...........	1467.52
	1061	15.1689	2.38975E-001	-8.62188E-007	0.00000E+000	2.38980E-001	0.00000E+000	9	...........	1467.52
	1066	15.2403	2.33987E-001	-9.87041E-007	0.00000E+000	2.33981E-001	0.00000E+000	9	...........	1467.52
	1071	15.3117	2.28973E-001	-1.09147E-006	0.00000E+000	2.28983E-001	0.00000E+000	9	...........	1467.52
	1076	15.3832	2.23992E-001	-1.23340E-006	0.00000E+000	2.23985E-001	0.00000E+000	9	...........	1467.52
	1081	15.4546	2.18971E-001	-1.32188E-006	0.00000E+000	2.18974E-001	0.00000E+000	9	...........	1467.52
	1086	15.526	2.13957E-001	-1.45940E-006	0.00000E+000	2.13976E-001	0.00000E+000	9	...........	1467.52
	1091	15.5974	2.08973E-001	-1.56321E-006	0.00000E+000	2.08978E-001	0.00000E+000	9	...........	1467.52
	1096	15.6688	2.03972E-001	-1.69906E-006	0.00000E+000	2.03979E-001	0.00000E+000	9	...........	1467.52
	1101	15.7402	1.99001E-001	-1.81202E-006	0.00000E+000	1.98981E-001	0.00000E+000	9	...........	1467.52
	1106	15.8117	1.94007E-001	-1.92370E-006	0.00000E+000	1.93983E-001	0.00000E+000	9	...........	1467.52
	1111	15.8831	1.88985E-001	-2.07370E-006	0.00000E+000	1.88984E-001	0.00000E+000	9	...........	1467.52
	1116	15.9545	1.83994E-001	-2.17777E-006	0.00000E+000	1.83986E-001	0.00000E+000	9	...........	1467.52
	1121	16.0259	1.78977E-001	-2.33522E-006	0.00000E+000	1.78988E-001	0.00000E+000	9	...........	1467.52
	1126	16.0973	1.73988E-001	-2.44187E-006	0.00000E+000	1.73990E-001	0.00000E+000	9	...........	1467.79
	1131	16.1687	1.69000E-001	-2.58134E-006	0.00000E+000	1.68991E-001	0.00000E+000	9	...........	1467.79
	1136	16.2402	1.63992E-001	-2.70697E-006	0.00000E+000	1.63993E-001	0.00000E+000	9	...........	1467.79
	1141	16.3116	1.58987E-001	-2.81795E-006	0.00000E+000	1.58995E-001	0.00000E+000	9	...........	1467.79
	1146	16.383	1.53989E-001	-2.98287E-006	0.00000E+000	1.53997E-001	0.00000E+000	9	...........	1467.79
	1151	16.4544	1.48987E-001	-3.09619E-006	0.00000E+000	1.48986E-001	0.00000E+000	9	...........	1467.79
	1156	16.5258	1.43995E-001	-3.25176E-006	0.00000E+000	1.43988E-001	0.00000E+000	9	...........	1467.79
	1161	16.5972	1.38994E-001	-3.36484E-006	0.00000E+000	1.38989E-001	0.00000E+000	9	...........	1467.79
	1166	16.6687	1.33989E-001	-3.50369E-006	0.00000E+000	1.33991E-001	0.00000E+000	9	...........	1467.79
	1171	16.7401	1.29008E-001	-3.63724E-006	0.00000E+000	1.28993E-001	0.00000E+000	9	...........	1467.79
	1176	16.8115	1.24000E-001	-3.75270E-006	0.00000E+000	1.23995E-001	0.00000E+000	9	...........	1467.79
	1181	16.8829	1.19008E-001	-3.91220E-006	0.00000E+000	1.18996E-001	0.00000E+000	9	...........	1467.79
	1186	16.9543	1.13984E-001	-4.02252E-006	0.00000E+000	1.13998E-001	0.00000E+000	9	...........	1467.79
	1191	17.0257	1.09001E-001	-4.19512E-006	0.00000E+000	1.09000E-001	0.00000E+000	9	...........	1467.79
	1196	17.0972	1.04018E-001	-4.31245E-006	0.00000E+000	1.04002E-001	0.00000E+000	9	...........	1467.52
	1200	17.1543	1.00014E-001	-4.41996E-006	0.00000E+000	1.00003E-001	0.00000E+000	9	...........	1467.52
CURVE4	TABLE
	Pt	T	Vf	Im	Vu	Sig	Ach	IERange	Over	Temp
	#	s	V vs. Ref.	A	V	V	V	#	bits	deg C
	1201	17.1686	9.99959E-002	-3.38098E-006	0.00000E+000	1.00003E-001	0.00000E+000	9	...........	1467.52