File: input/ECSA_test/CV_ECSA_#1_#2.DTA
EXPLAIN
TAG	CV
TITLE	LABEL	ECSA	Test Identifier
DATE	LABEL	2/13/2024	Date
TIME	LABEL	8:47:01	Time
NOTES	NOTES	1	Notes...

PSTAT	PSTAT	IFC1010-36068	Potentiostat
VINIT	POTEN	1.00000E-001	F	Initial E (V)
VLIMIT1	POTEN	3.00000E-001	F	Scan Limit 1 (V)
VLIMIT2	POTEN	1.00000E-001	F	Scan Limit 2 (V)
VFINAL	POTEN	1.00000E-001	F	Final E (V)
SCANRATE	QUANT	2.00000E+001	A Real Number
STEPSIZE	QUANT	1.00000E+000	Step Size (mV)
CYCLES	IQUANT	3	Cycles (#)
IMODE	SELECTOR	1	I/E Range Mode
IRANGE	QUANT	3.00000E-001	Max Current (mA)
AREA	QUANT	1.00000E+000	Sample Area (cm^2)
EQDELAY	QUANT	0.00000E+000	Equil. Time (s)
IRCOMP	SELECTOR	0	IRComp
PFCOR	QUANT	5.00000E+001	PF Corr. (ohm)
SAMPLINGMODE	SELECTOR	2	Sampling Mode
EOC	QUANT	0.3246219	Open Circuit (V)
ELECTRODETYPE	SELECTOR	0	Electrode Type
STRIPPING	TOGGLE	F	Used for Stripping
SEQUENCER	TOGGLE	TRUE	Run as Sequence
PSTATMODEL	IQUANT	64	Pstat Model
PSTATSECTION	LABEL	IFC1010-36068	Pstat Section
PSTATSERIALNO	LABEL	36068	Pstat Serial Number
CTRLMODE	IQUANT	1	Control Mode
ELECTROMETER	IQUANT	0	RE=0 or CS=1
IESTAB	IQUANT	2	I/E Stability
CASPEED	IQUANT	4	Control Amp Speed
CONVENTION	IQUANT	1	Current Convention
ICHRANGE	IQUANT	2	Ich Range
ICHRANGEMODE	TOGGLE	F	Ich Auto Range
ICHOFFSETENABLE	TOGGLE	F	Ich Offset Enable
ICHOFFSET	QUANT	0	Ich Offset (V)
ICHFILTER	IQUANT	3	Ich Filter
VCHRANGE	IQUANT	2	Vch Range
VCHRANGEMODE	TOGGLE	F	Vch Auto Range
VCHOFFSETENABLE	TOGGLE	F	Vch Offset Enable
VCHOFFSET	QUANT	0	Vch Offset (V)
VCHFILTER	IQUANT	3	Vch Filter
IERANGELOWERLIMIT	IQUANT	4	I/E Range Lower Limit
IERANGEMODE	TOGGLE	F	I/E AutoRange
IERANGE	IQUANT	9	I/E Range
ACHSELECT	IQUANT	0	Ach Select
ACHRANGE	IQUANT	2	Ach Range
ACHOFFSETENABLE	TOGGLE	F	Ach Offset Enable
ACHOFFSET	QUANT	0	Ach Offset (V)
ACHFILTER	IQUANT	1	Ach Filter
SENSECABLEID	IQUANT	13	Sense Cable ID
PWRCABLEID	IQUANT	13	Power Cable ID
DCCALDATE	LABEL	8/11/2023	DC Calibration Date
ACCALDATE	LABEL	6/2/2023	AC Calibration Date
FRAMEWORKVERSION	LABEL	7.10.3	Framework Version
INSTRUMENTVERSION	LABEL	4.91	Instrument Version
COMMVERSION	LABEL	3.10	Communications Version
CPUPLDVERSION	LABEL	2.22	CPU PLD Version
CTRLPLDVERSION	LABEL	0.00	CTRL PLD Version
PSTATPLDVERSION	LABEL	0.00	PSTAT PLD Version
CURVE1	TABLE
	Pt	T	Vf	Im	Vu	Sig	Ach	IERange	Over	Temp
	#	s	V vs. Ref.	A	V	V	V	#	bits	deg C
	0	0.05	9.99937E-002	-8.80573E-006	0.00000E+000	1.00003E-001	0.00000E+000	9	...........	1467.52
	4	0.25	1.03997E-001	-7.78890E-006	0.00000E+000	1.04002E-001	0.00000E+000	9	...........	1467.64
	8	0.45	1.07981E-001	-7.33454E-006	0.00000E+000	1.08000E-001	0.00000E+000	9	...........	1467.88
	12	0.65	1.11975E-001	-6.92589E-006	0.00000E+000	1.11999E-001	0.00000E+000	9	...........	1467.88
	16	0.85	1.15992E-001	-6.54022E-006	0.00000E+000	1.15997E-001	0.00000E+000	9	...........	1467.88
	20	1.05	1.19982E-001	-6.19631E-006	0.00000E+000	1.19996E-001	0.00000E+000	9	...........	1467.88
	24	1.25	1.23961E-001	-5.86688E-006	0.00000E+000	1.23995E-001	0.00000E+000	9	...........	1467.88
	28	1.45	1.27994E-001	-5.55990E-006	0.00000E+000	1.28006E-001	0.00000E+000	9	...........	1467.88
	32	1.65	1.31996E-001	-5.26908E-006	0.00000E+000	1.32004E-001	0.00000E+000	9	...........	1467.88
	36	1.85	1.35987E-001	-4.99287E-006	0.00000E+000	1.36003E-001	0.00000E+000	9	...........	1467.88
	40	2.05	1.39975E-001	-4.72691E-006	0.00000E+000	1.40002E-001	0.00000E+000	9	...........	1467.88
	44	2.25	1.43981E-001	-4.46928E-006	0.00000E+000	1.44000E-001	0.00000E+000	9	...........	1467.88
	48	2.45	1.47984E-001	-4.21912E-006	0.00000E+000	1.47999E-001	0.00000E+000	9	...........	1467.88
	52	2.65	1.51968E-001	-3.98525E-006	0.00000E+000	1.51997E-001	0.00000E+000	9	...........	1467.88
	56	2.85	1.55985E-001	-3.74220E-006	0.00000E+000	1.55996E-001	0.00000E+000	9	...........	1467.88
	60	3.05	1.59977E-001	-3.50897E-006	0.00000E+000	1.59995E-001	0.00000E+000	9	...........	1467.88
	64	3.25	1.63990E-001	-3.28643E-006	0.00000E+000	1.64006E-001	0.00000E+000	9	...........	1467.85
	68	3.45	1.67989E-001	-3.05801E-006	0.00000E+000	1.68004E-001	0.00000E+000	9	...........	1467.79
	72	3.65	1.71980E-001	-2.84139E-006	0.00000E+000	1.72003E-001	0.00000E+000	9	...........	1467.79
	76	3.85	1.75984E-001	-2.62745E-006	0.00000E+000	1.76002E-001	0.00000E+000	9	...........	1467.79
	80	4.05	1.79977E-001	-2.42011E-006	0.00000E+000	1.80000E-001	0.00000E+000	9	...........	1467.79
	84	4.25	1.83988E-001	-2.20961E-006	0.00000E+000	1.83999E-001	0.00000E+000	9	...........	1467.76
	88	4.45	1.87977E-001	-1.99838E-006	0.00000E+000	1.87997E-001	0.00000E+000	9	...........	1467.70
	92	4.65	1.91998E-001	-1.80700E-006	0.00000E+000	1.91996E-001	0.00000E+000	9	...........	1467.70
	96	4.85	1.95983E-001	-1.60337E-006	0.00000E+000	1.95995E-001	0.00000E+000	9	...........	1467.70
	100	5.05	1.99988E-001	-1.42026E-006	0.00000E+000	2.00006E-001	0.00000E+000	9	...........	1467.70
	104	5.25	2.03973E-001	-1.22757E-006	0.00000E+000	2.04004E-001	0.00000E+000	9	...........	1467.67
	108	5.45	2.07979E-001	-1.04534E-006	0.00000E+000	2.08003E-001	0.00000E+000	9	...........	1467.61
	112	5.65	2.11978E-001	-8.69816E-007	0.00000E+000	2.12001E-001	0.00000E+000	9	...........	1467.61
	116	5.85	2.15964E-001	-7.05587E-007	0.00000E+000	2.16000E-001	0.00000E+000	9	...........	1467.61
	120	6.05	2.19968E-001	-5.41759E-007	0.00000E+000	2.19999E-001	0.00000E+000	9	...........	1467.61
	124	6.25	2.23971E-001	-3.83189E-007	0.00000E+000	2.23997E-001	0.00000E+000	9	...........	1467.55
	128	6.45	2.27960E-001	-2.41505E-007	0.00000E+000	2.27996E-001	0.00000E+000	9	...........	1467.43
	132	6.65	2.31975E-001	-9.15725E-008	0.00000E+000	2.31994E-001	0.00000E+000	9	...........	1467.43
	136	6.85	2.35975E-001	4.73987E-008	0.00000E+000	2.36006E-001	0.00000E+000	9	...........	1467.43
	140	7.05	2.39976E-001	1.81590E-007	0.00000E+000	2.40004E-001	0.00000E+000	9	...........	1467.43
	144	7.25	2.43987E-001	3.15114E-007	0.00000E+000	2.44003E-001	0.00000E+000	9	...........	1467.60
	148	7.45	2.47981E-001	4.41667E-007	0.00000E+000	2.48001E-001	0.00000E+000	9	...........	1467.88
	152	7.65	2.51969E-001	5.55148E-007	0.00000E+000	2.52000E-001	0.00000E+000	9	...........	1467.88
	156	7.85	2.55963E-001	6.79245E-007	0.00000E+000	2.55999E-001	0.00000E+000	9	...........	1467.88
	160	8.05	2.59964E-001	7.87745E-007	0.00000E+000	2.59997E-001	0.00000E+000	9	...........	1467.88
	164	8.25	2.63959E-001	8.93032E-007	0.00000E+000	2.63996E-001	0.00000E+000	9	...........	1467.92
	168	8.45	2.67946E-001	1.00543E-006	0.00000E+000	2.67994E-001	0.00000E+000	9	...........	1467.97
	172	8.65	2.71973E-001	1.11946E-006	0.00000E+000	2.72006E-001	0.00000E+000	9	...........	1467.97
	176	8.85	2.75981E-001	1.21539E-006	0.00000E+000	2.76004E-001	0.00000E+000	9	...........	1467.97
	180	9.05	2.79961E-001	1.31872E-006	0.00000E+000	2.80003E-001	0.00000E+000	9	...........	1467.97
	184	9.25	2.83990E-001	1.42067E-006	0.00000E+000	2.84001E-001	0.00000E+000	9	...........	1467.80
	188	9.45	2.87986E-001	1.51751E-006	0.00000E+000	2.88000E-001	0.00000E+000	9	...........	1467.52
	192	9.65	2.91965E-001	1.61277E-006	0.00000E+000	2.91999E-001	0.00000E+000	9	...........	1467.52
	196	9.85	2.95984E-001	1.71720E-006	0.00000E+000	2.95997E-001	0.00000E+000	9	...........	1467.52
	200	10.05	2.99973E-001	1.81851E-006	0.00000E+000	2.99996E-001	0.00000E+000	9	...........	1467.52
	204	10.25	2.95994E-001	8.01185E-007	0.00000E+000	2.95997E-001	0.00000E+000	9	...........	1467.52
	208	10.45	2.91969E-001	5.50134E-007	0.00000E+000	2.91999E-001	0.00000E+000	9	...........	1467.52
	212	10.65	2.87994E-001	3.30933E-007	0.00000E+000	2.88000E-001	0.00000E+000	9	...........	1467.52
	216	10.85	2.83995E-001	1.51107E-007	0.00000E+000	2.84001E-001	0.00000E+000	9	...........	1467.52
	220	11.05	2.79972E-001	-2.93851E-008	0.00000E+000	2.80003E-001	0.00000E+000	9	...........	1467.52
	224	11.25	2.75983E-001	-2.01251E-007	0.00000E+000	2.76004E-001	0.00000E+000	9	...........	1467.71
	228	11.45	2.71987E-001	-3.61967E-007	0.00000E+000	2.72006E-001	0.00000E+000	9	...........	1467.97
	232	11.65	2.67951E-001	-5.17057E-007	0.00000E+000	2.67994E-001	0.00000E+000	9	...........	1467.97
	236	11.85	2.63970E-001	-6.69524E-007	0.00000E+000	2.63996E-001	0.00000E+000	9	...........	1467.97
	240	12.05	2.59973E-001	-8.12131E-007	0.00000E+000	2.59997E-001	0.00000E+000	9	...........	1467.97
	244	12.25	2.55975E-001	-9.65554E-007	0.00000E+000	2.55999E-001	0.00000E+000	9	...........	1467.90
	248	12.45	2.51978E-001	-1.11708E-006	0.00000E+000	2.52000E-001	0.00000E+000	9	...........	1467.79
	252	12.65	2.47985E-001	-1.27231E-006	0.00000E+000	2.48001E-001	0.00000E+000	9	...........	1467.79
	256	12.85	2.43999E-001	-1.42928E-006	0.00000E+000	2.44003E-001	0.00000E+000	9	...........	1467.79
	260	13.05	2.39983E-001	-1.58709E-006	0.00000E+000	2.40004E-001	0.00000E+000	9	...........	1467.79
	264	13.25	2.35981E-001	-1.75556E-006	0.00000E+000	2.36006E-001	0.00000E+000	9	...........	1467.64
	268	13.45	2.31985E-001	-1.93422E-006	0.00000E+000	2.31994E-001	0.00000E+000	9	...........	1467.43
	272	13.65	2.27978E-001	-2.10815E-006	0.00000E+000	2.27996E-001	0.00000E+000	9	...........	1467.43
	276	13.85	2.23980E-001	-2.28712E-006	0.00000E+000	2.23997E-001	0.00000E+000	9	...........	1467.43
	280	14.05	2.19987E-001	-2.48594E-006	0.00000E+000	2.19999E-001	0.00000E+000	9	...........	1467.43
	284	14.25	2.15975E-001	-2.67664E-006	0.00000E+000	2.16000E-001	0.00000E+000	9	...........	1467.66
	288	14.45	2.11983E-001	-2.87922E-006	0.00000E+000	2.12001E-001	0.00000E+000	9	...........	1467.97
	292	14.65	2.07981E-001	-3.09164E-006	0.00000E+000	2.08003E-001	0.00000E+000	9	...........	1467.97
	296	14.85	2.03982E-001	-3.30759E-006	0.00000E+000	2.04004E-001	0.00000E+000	9	...........	1467.97
	300	15.05	2.00000E-001	-3.52903E-006	0.00000E+000	2.00006E-001	0.00000E+000	9	...........	1467.97
	304	15.25	1.95990E-001	-3.76141E-006	0.00000E+000	1.95995E-001	0.00000E+000	9	...........	1467.97
	308	15.45	1.92010E-001	-3.98975E-006	0.00000E+000	1.91996E-001	0.00000E+000	9	...........	1467.97
	312	15.65	1.87987E-001	-4.22531E-006	0.00000E+000	1.87997E-001	0.00000E+000	9	...........	1467.97
	316	15.85	1.83994E-001	-4.47216E-006	0.00000E+000	1.83999E-001	0.00000E+000	9	...........	1467.97
	320	16.05	1.79981E-001	-4.70865E-006	0.00000E+000	1.80000E-001	0.00000E+000	9	...........	1467.97
	324	16.25	1.75991E-001	-4.95290E-006	0.00000E+000	1.76002E-001	0.00000E+000	9	...........	1467.82
	328	16.45	1.71985E-001	-5.19250E-006	0.00000E+000	1.72003E-001	0.00000E+000	9	...........	1467.61
	332	16.65	1.68000E-001	-5.42796E-006	0.00000E+000	1.68004E-001	0.00000E+000	9	...........	1467.61
	336	16.85	1.63988E-001	-5.66783E-006	0.00000E+000	1.64006E-001	0.00000E+000	9	...........	1467.61
	340	17.05	1.59981E-001	-5.91148E-006	0.00000E+000	1.59995E-001	0.00000E+000	9	...........	1467.61
	344	17.25	1.55981E-001	-6.15345E-006	0.00000E+000	1.55996E-001	0.00000E+000	9	...........	1467.53
	348	17.45	1.51975E-001	-6.39152E-006	0.00000E+000	1.51997E-001	0.00000E+000	9	...........	1467.43
	352	17.65	1.47992E-001	-6.62631E-006	0.00000E+000	1.47999E-001	0.00000E+000	9	...........	1467.43
	356	17.85	1.43995E-001	-6.86664E-006	0.00000E+000	1.44000E-001	0.00000E+000	9	...........	1467.43
	360	18.05	1.39986E-001	-7.10782E-006	0.00000E+000	1.40002E-001	0.00000E+000	9	...........	1467.43
	364	18.25	1.35993E-001	-7.35587E-006	0.00000E+000	1.36003E-001	0.00000E+000	9	...........	1467.64
	368	18.45	1.32007E-001	-7.60506E-006	0.00000E+000	1.32004E-001	0.00000E+000	9	...........	1467.88
	372	18.65	1.28005E-001	-7.86124E-006	0.00000E+000	1.28006E-001	0.00000E+000	9	...........	1467.88
	376	18.85	1.23972E-001	-8.12590E-006	0.00000E+000	1.23995E-001	0.00000E+000	9	...........	1467.88
	380	19.05	1.19990E-001	-8.40120E-006	0.00000E+000	1.19996E-001	0.00000E+000	9	...........	1467.88
	384	19.25	1.16002E-001	-8.66960E-006	0.00000E+000	1.15997E-001	0.00000E+000	9	...........	1467.88
	388	19.45	1.11986E-001	-8.95120E-006	0.00000E+000	1.11999E-001	0.00000E+000	9	...........	1467.88
	392	19.65	1.07979E-001	-9.23425E-006	0.00000E+000	1.08000E-001	0.00000E+000	9	...........	1467.88
	396	19.85	1.04006E-001	-9.51645E-006	0.00000E+000	1.04002E-001	0.00000E+000	9	...........	1467.88
	400	20.05	1.00001E-001	-9.79704E-006	0.00000E+000	1.00003E-001	0.00000E+000	9	...........	1467.88
CURVE2	TABLE
	Pt	T	Vf	Im	Vu	Sig	Ach	IERange	Over	Temp
	#	s	V vs. Ref.	A	V	V	V	#	bits	deg C
	401	20.1	1.00989E-001	-8.98383E-006	0.00000E+000	1.01003E-001	0.00000E+000	9	...........	1467.88
	405	20.3	1.04977E-001	-8.32822E-006	0.00000E+000	1.05001E-001	0.00000E+000	9	...........	1467.52
	409	20.5	1.08987E-001	-7.79502E-006	0.00000E+000	1.09000E-001	0.00000E+000	9	...........	1467.52
	413	20.7	1.12976E-001	-7.31679E-006	0.00000E+000	1.12999E-001	0.00000E+000	9	...........	1467.52
	417	20.9	1.16983E-001	-6.88900E-006	0.00000E+000	1.16997E-001	0.00000E+000	9	...........	1467.52
	421	21.1	1.20977E-001	-6.49073E-006	0.00000E+000	1.20996E-001	0.00000E+000	9	...........	1467.52
	425	21.3	1.24976E-001	-6.12290E-006	0.00000E+000	1.24994E-001	0.00000E+000	9	...........	1467.43
	429	21.5	1.28992E-001	-5.77741E-006	0.00000E+000	1.29005E-001	0.00000E+000	9	...........	1467.43
	433	21.7	1.32990E-001	-5.45452E-006	0.00000E+000	1.33004E-001	0.00000E+000	9	...........	1467.43
	437	21.9	1.36972E-001	-5.15215E-006	0.00000E+000	1.37003E-001	0.00000E+000	9	...........	1467.43
	441	22.1	1.40994E-001	-4.85914E-006	0.00000E+000	1.41001E-001	0.00000E+000	9	...........	1467.43
	445	22.3	1.44989E-001	-4.58343E-006	0.00000E+000	1.45000E-001	0.00000E+000	9	...........	1467.88
	449	22.5	1.48972E-001	-4.32045E-006	0.00000E+000	1.48998E-001	0.00000E+000	9	...........	1467.88
	453	22.7	1.52964E-001	-4.06244E-006	0.00000E+000	1.52997E-001	0.00000E+000	9	...........	1467.88
	457	22.9	1.56988E-001	-3.81071E-006	0.00000E+000	1.56996E-001	0.00000E+000	9	...........	1467.88
	461	23.1	1.60970E-001	-3.57113E-006	0.00000E+000	1.60994E-001	0.00000E+000	9	...........	1467.88
	465	23.3	1.64963E-001	-3.33569E-006	0.00000E+000	1.65005E-001	0.00000E+000	9	...........	1467.88
	469	23.5	1.68994E-001	-3.10483E-006	0.00000E+000	1.69004E-001	0.00000E+000	9	...........	1467.88
	473	23.7	1.72981E-001	-2.87882E-006	0.00000E+000	1.73003E-001	0.00000E+000	9	...........	1467.88
	477	23.9	1.76976E-001	-2.65789E-006	0.00000E+000	1.77001E-001	0.00000E+000	9	...........	1467.88
	481	24.1	1.80994E-001	-2.43611E-006	0.00000E+000	1.81000E-001	0.00000E+000	9	...........	1467.88
	485	24.3	1.84970E-001	-2.22320E-006	0.00000E+000	1.84998E-001	0.00000E+000	9	...........	1467.43
	489	24.5	1.88976E-001	-2.01634E-006	0.00000E+000	1.88997E-001	0.00000E+000	9	...........	1467.43
	493	24.7	1.92995E-001	-1.81514E-006	0.00000E+000	1.92996E-001	0.00000E+000	9	...........	1467.43
	497	24.9	1.96970E-001	-1.61390E-006	0.00000E+000	1.96994E-001	0.00000E+000	9	...........	1467.43
	501	25.1	2.00968E-001	-1.42638E-006	0.00000E+000	2.01005E-001	0.00000E+000	9	...........	1467.43
	505	25.3	2.04987E-001	-1.24208E-006	0.00000E+000	2.05004E-001	0.00000E+000	9	...........	1467.43
	509	25.5	2.08967E-001	-1.05977E-006	0.00000E+000	2.09003E-001	0.00000E+000	9	...........	1467.43
	513	25.7	2.12965E-001	-8.84890E-007	0.00000E+000	2.13001E-001	0.00000E+000	9	...........	1467.43
	517	25.9	2.16964E-001	-7.15937E-007	0.00000E+000	2.17000E-001	0.00000E+000	9	...........	1467.43
	521	26.1	2.20980E-001	-5.54465E-007	0.00000E+000	2.20998E-001	0.00000E+000	9	...........	1467.43
	525	26.3	2.24968E-001	-4.02654E-007	0.00000E+000	2.24997E-001	0.00000E+000	9	...........	1467.88
	529	26.5	2.28962E-001	-2.51354E-007	0.00000E+000	2.28996E-001	0.00000E+000	9	...........	1467.88
	533	26.7	2.32969E-001	-1.05524E-007	0.00000E+000	2.32994E-001	0.00000E+000	9	...........	1467.88
	537	26.9	2.36980E-001	2.90338E-008	0.00000E+000	2.37005E-001	0.00000E+000	9	...........	1467.88
	541	27.1	2.40960E-001	1.60268E-007	0.00000E+000	2.41004E-001	0.00000E+000	9	...........	1467.88
	545	27.3	2.44982E-001	2.95759E-007	0.00000E+000	2.45002E-001	0.00000E+000	9	...........	1467.70
	549	27.5	2.48968E-001	4.25759E-007	0.00000E+000	2.49001E-001	0.00000E+000	9	...........	1467.70
	553	27.7	2.52955E-001	5.39684E-007	0.00000E+000	2.53000E-001	0.00000E+000	9	...........	1467.70
	557	27.9	2.56972E-001	6.57356E-007	0.00000E+000	2.56998E-001	0.00000E+000	9	...........	1467.70
	561	28.1	2.60968E-001	7.71425E-007	0.00000E+000	2.60997E-001	0.00000E+000	9	...........	1467.70
	565	28.3	2.64953E-001	8.75823E-007	0.00000E+000	2.64995E-001	0.00000E+000	9	...........	1467.43
	569	28.5	2.68978E-001	9.86013E-007	0.00000E+000	2.68994E-001	0.00000E+000	9	...........	1467.43
	573	28.7	2.72976E-001	1.09376E-006	0.00000E+000	2.73005E-001	0.00000E+000	9	...........	1467.43
	577	28.9	2.76977E-001	1.18961E-006	0.00000E+000	2.77004E-001	0.00000E+000	9	...........	1467.43
	581	29.1	2.80955E-001	1.29460E-006	0.00000E+000	2.81002E-001	0.00000E+000	9	...........	1467.43
	585	29.3	2.84984E-001	1.39003E-006	0.00000E+000	2.85001E-001	0.00000E+000	9	...........	1467.52
	589	29.5	2.88983E-001	1.49903E-006	0.00000E+000	2.89000E-001	0.00000E+000	9	...........	1467.52
	593	29.7	2.92957E-001	1.60181E-006	0.00000E+000	2.92998E-001	0.00000E+000	9	...........	1467.52
	597	29.9	2.96971E-001	1.70376E-006	0.00000E+000	2.96997E-001	0.00000E+000	9	...........	1467.52
	601	30.1	2.98978E-001	1.05421E-006	0.00000E+000	2.98996E-001	0.00000E+000	9	...........	1467.52
[...]
	861	43.1	1.60971E-001	-3.52890E-006	0.00000E+000	1.60994E-001	0.00000E+000	9	...........	1467.70
	865	43.3	1.64971E-001	-3.29766E-006	0.00000E+000	1.65005E-001	0.00000E+000	9	...........	1467.52
	869	43.5	1.68989E-001	-3.06915E-006	0.00000E+000	1.69004E-001	0.00000E+000	9	...........	1467.52
	873	43.7	1.72982E-001	-2.84607E-006	0.00000E+000	1.73003E-001	0.00000E+000	9	...........	1467.52
	877	43.9	1.76972E-001	-2.62980E-006	0.00000E+000	1.77001E-001	0.00000E+000	9	...........	1467.52
	881	44.1	1.80991E-001	-2.41552E-006	0.00000E+000	1.81000E-001	0.00000E+000	9	...........	1467.52
	885	44.3	1.84977E-001	-2.19989E-006	0.00000E+000	1.84998E-001	0.00000E+000	9	...........	1467.52
	889	44.5	1.88968E-001	-1.99519E-006	0.00000E+000	1.88997E-001	0.00000E+000	9	...........	1467.52
	893	44.7	1.92993E-001	-1.80174E-006	0.00000E+000	1.92996E-001	0.00000E+000	9	...........	1467.52
	897	44.9	1.96982E-001	-1.60326E-006	0.00000E+000	1.96994E-001	0.00000E+000	9	...........	1467.52
	901	45.1	2.00985E-001	-1.41377E-006	0.00000E+000	2.01005E-001	0.00000E+000	9	...........	1467.52
	905	45.3	2.04994E-001	-1.22767E-006	0.00000E+000	2.05004E-001	0.00000E+000	9	...........	1467.97
	909	45.5	2.08973E-001	-1.05601E-006	0.00000E+000	2.09003E-001	0.00000E+000	9	...........	1467.97
	913	45.7	2.12962E-001	-8.83056E-007	0.00000E+000	2.13001E-001	0.00000E+000	9	...........	1467.97
	917	45.9	2.16953E-001	-7.15470E-007	0.00000E+000	2.17000E-001	0.00000E+000	9	...........	1467.97
	921	46.1	2.20976E-001	-5.57155E-007	0.00000E+000	2.20998E-001	0.00000E+000	9	...........	1467.97
	925	46.3	2.24960E-001	-4.02821E-007	0.00000E+000	2.24997E-001	0.00000E+000	9	...........	1467.52
	929	46.5	2.28964E-001	-2.57724E-007	0.00000E+000	2.28996E-001	0.00000E+000	9	...........	1467.52
	933	46.7	2.32974E-001	-1.02900E-007	0.00000E+000	2.32994E-001	0.00000E+000	9	...........	1467.52
	937	46.9	2.36978E-001	2.43425E-008	0.00000E+000	2.37005E-001	0.00000E+000	9	...........	1467.52
	941	47.1	2.40960E-001	1.52330E-007	0.00000E+000	2.41004E-001	0.00000E+000	9	...........	1467.52
	945	47.3	2.44984E-001	2.80463E-007	0.00000E+000	2.45002E-001	0.00000E+000	9	...........	1467.43
	949	47.5	2.48972E-001	4.00257E-007	0.00000E+000	2.49001E-001	0.00000E+000	9	...........	1467.43
	953	47.7	2.52958E-001	5.25710E-007	0.00000E+000	2.53000E-001	0.00000E+000	9	...........	1467.43
	957	47.9	2.56962E-001	6.37123E-007	0.00000E+000	2.56998E-001	0.00000E+000	9	...........	1467.43
	961	48.1	2.60965E-001	7.42699E-007	0.00000E+000	2.60997E-001	0.00000E+000	9	...........	1467.43
	965	48.3	2.64956E-001	8.49854E-007	0.00000E+000	2.64995E-001	0.00000E+000	9	...........	1467.97
	969	48.5	2.68979E-001	9.60933E-007	0.00000E+000	2.68994E-001	0.00000E+000	9	...........	1467.97
	973	48.7	2.72976E-001	1.06514E-006	0.00000E+000	2.73005E-001	0.00000E+000	9	...........	1467.97
	977	48.9	2.76972E-001	1.16557E-006	0.00000E+000	2.77004E-001	0.00000E+000	9	...........	1467.97
	981	49.1	2.80954E-001	1.27048E-006	0.00000E+000	2.81002E-001	0.00000E+000	9	...........	1467.97
	985	49.3	2.84977E-001	1.37075E-006	0.00000E+000	2.85001E-001	0.00000E+000	9	...........	1467.88
	989	49.5	2.88978E-001	1.47486E-006	0.00000E+000	2.89000E-001	0.00000E+000	9	...........	1467.88
	993	49.7	2.92954E-001	1.57645E-006	0.00000E+000	2.92998E-001	0.00000E+000	9	...........	1467.88
	997	49.9	2.96969E-001	1.67873E-006	0.00000E+000	2.96997E-001	0.00000E+000	9	...........	1467.88
	1001	50.1	2.98984E-001	1.03324E-006	0.00000E+000	2.98996E-001	0.00000E+000	9	...........	1467.88
	1005	50.3	2.94993E-001	6.86404E-007	0.00000E+000	2.94998E-001	0.00000E+000	9	...........	1467.52
	1009	50.5	2.90966E-001	4.42512E-007	0.00000E+000	2.90999E-001	0.00000E+000	9	...........	1467.52
	1013	50.7	2.86980E-001	2.45100E-007	0.00000E+000	2.87000E-001	0.00000E+000	9	...........	1467.52
	1017	50.9	2.82986E-001	5.96383E-008	0.00000E+000	2.83002E-001	0.00000E+000	9	...........	1467.52
	1021	51.1	2.78974E-001	-1.11294E-007	0.00000E+000	2.79003E-001	0.00000E+000	9	...........	1467.52
	1025	51.3	2.74982E-001	-2.79191E-007	0.00000E+000	2.75004E-001	0.00000E+000	9	...........	1467.52
	1029	51.5	2.70997E-001	-4.31402E-007	0.00000E+000	2.71006E-001	0.00000E+000	9	...........	1467.52
	1033	51.7	2.66955E-001	-5.84914E-007	0.00000E+000	2.66995E-001	0.00000E+000	9	...........	1467.52
	1037	51.9	2.62973E-001	-7.29110E-007	0.00000E+000	2.62996E-001	0.00000E+000	9	...........	1467.52
	1041	52.1	2.58973E-001	-8.80788E-007	0.00000E+000	2.58998E-001	0.00000E+000	9	...........	1467.52
	1045	52.3	2.54968E-001	-1.02278E-006	0.00000E+000	2.54999E-001	0.00000E+000	9	...........	1467.97
	1049	52.5	2.50981E-001	-1.17395E-006	0.00000E+000	2.51000E-001	0.00000E+000	9	...........	1467.97
	1053	52.7	2.46982E-001	-1.31770E-006	0.00000E+000	2.47002E-001	0.00000E+000	9	...........	1467.97
	1057	52.9	2.42987E-001	-1.46955E-006	0.00000E+000	2.43003E-001	0.00000E+000	9	...........	1467.97
	1061	53.1	2.38981E-001	-1.63143E-006	0.00000E+000	2.39005E-001	0.00000E+000	9	...........	1467.97
	1065	53.3	2.34991E-001	-1.79190E-006	0.00000E+000	2.35006E-001	0.00000E+000	9	...........	1467.79
	1069	53.5	2.30977E-001	-1.95895E-006	0.00000E+000	2.30995E-001	0.00000E+000	9	...........	1467.79
	1073	53.7	2.26964E-001	-2.13238E-006	0.00000E+000	2.26996E-001	0.00000E+000	9	...........	1467.79
	1077	53.9	2.22984E-001	-2.31713E-006	0.00000E+000	2.22998E-001	0.00000E+000	9	...........	1467.79
	1081	54.1	2.18979E-001	-2.50662E-006	0.00000E+000	2.18999E-001	0.00000E+000	9	...........	1467.79
	1085	54.3	2.14968E-001	-2.69999E-006	0.00000E+000	2.15000E-001	0.00000E+000	9	...........	1467.52
	1089	54.5	2.10986E-001	-2.89840E-006	0.00000E+000	2.11002E-001	0.00000E+000	9	...........	1467.52
	1093	54.7	2.06979E-001	-3.10104E-006	0.00000E+000	2.07003E-001	0.00000E+000	9	...........	1467.52
	1097	54.9	2.02980E-001	-3.30784E-006	0.00000E+000	2.03005E-001	0.00000E+000	9	...........	1467.52
	1101	55.1	1.99004E-001	-3.52405E-006	0.00000E+000	1.99006E-001	0.00000E+000	9	...........	1467.52
	1105	55.3	1.94993E-001	-3.75299E-006	0.00000E+000	1.94995E-001	0.00000E+000	9	...........	1467.52
	1109	55.5	1.90978E-001	-3.97541E-006	0.00000E+000	1.90996E-001	0.00000E+000	9	...........	1467.52
	1113	55.7	1.86984E-001	-4.20946E-006	0.00000E+000	1.86998E-001	0.00000E+000	9	...........	1467.52
	1117	55.9	1.82987E-001	-4.45019E-006	0.00000E+000	1.82999E-001	0.00000E+000	9	...........	1467.52
	1121	56.1	1.78978E-001	-4.68883E-006	0.00000E+000	1.79000E-001	0.00000E+000	9	...........	1467.52
	1125	56.3	1.74976E-001	-4.92902E-006	0.00000E+000	1.75002E-001	0.00000E+000	9	...........	1467.97
	1129	56.5	1.70977E-001	-5.16985E-006	0.00000E+000	1.71003E-001	0.00000E+000	9	...........	1467.97
	1133	56.7	1.67012E-001	-5.40494E-006	0.00000E+000	1.67005E-001	0.00000E+000	9	...........	1467.97
	1137	56.9	1.62980E-001	-5.64972E-006	0.00000E+000	1.63006E-001	0.00000E+000	9	...........	1467.97
	1141	57.1	1.58981E-001	-5.88484E-006	0.00000E+000	1.58995E-001	0.00000E+000	9	...........	1467.97
	1145	57.3	1.54996E-001	-6.12697E-006	0.00000E+000	1.54996E-001	0.00000E+000	9	...........	1467.61
	1149	57.5	1.50965E-001	-6.37525E-006	0.00000E+000	1.50998E-001	0.00000E+000	9	...........	1467.61
	1153	57.7	1.46996E-001	-6.61264E-006	0.00000E+000	1.46999E-001	0.00000E+000	9	...........	1467.61
	1157	57.9	1.42999E-001	-6.85832E-006	0.00000E+000	1.43001E-001	0.00000E+000	9	...........	1467.61
	1161	58.1	1.38983E-001	-7.10305E-006	0.00000E+000	1.39002E-001	0.00000E+000	9	...........	1467.61
	1165	58.3	1.35000E-001	-7.36287E-006	0.00000E+000	1.35003E-001	0.00000E+000	9	...........	1467.52
	1169	58.5	1.31004E-001	-7.62644E-006	0.00000E+000	1.31005E-001	0.00000E+000	9	...........	1467.52
	1173	58.7	1.26986E-001	-7.88598E-006	0.00000E+000	1.27006E-001	0.00000E+000	9	...........	1467.52
	1177	58.9	1.22979E-001	-8.15935E-006	0.00000E+000	1.22995E-001	0.00000E+000	9	...........	1467.52
	1181	59.1	1.18994E-001	-8.44045E-006	0.00000E+000	1.18996E-001	0.00000E+000	9	...........	1467.52
	1185	59.3	1.14985E-001	-8.73161E-006	0.00000E+000	1.14998E-001	0.00000E+000	9	...........	1467.52
	1189	59.5	1.10982E-001	-9.02168E-006	0.00000E+000	1.10999E-001	0.00000E+000	9	...........	1467.52
	1193	59.7	1.06978E-001	-9.31240E-006	0.00000E+000	1.07001E-001	0.00000E+000	9	...........	1467.52
	1197	59.9	1.03011E-001	-9.60559E-006	0.00000E+000	1.03002E-001	0.00000E+000	9	...........	1467.52
	1200	60.05	1.00002E-001	-9.81836E-006	0.00000E+000	1.00003E-001	0.00000E+000	9	...........	1467.52
CURVE4	TABLE
	Pt	T	Vf	Im	Vu	Sig	Ach	IERange	Over	Temp
	#	s	V vs. Ref.	A	V	V	V	#	bits	deg C
	1201	60.1	9.99896E-002	-9.44241E-006	0.00000E+000	1.00003E-001	0.00000E+000	9	...........	1467.52