File: input/ECSA_test/CV_ECSA_#2_#3.DTA
EXPLAIN
TAG	CV
TITLE	LABEL	ECSA	Test Identifier
DATE	LABEL	2/13/2024	Date
TIME	LABEL	12:03:14	Time
NOTES	NOTES	1	Notes...

PSTAT	PSTAT	IFC1010-36068	Potentiostat
VINIT	POTEN	1.00000E-001	F	Initial E (V)
VLIMIT1	POTEN	3.00000E-001	F	Scan Limit 1 (V)
VLIMIT2	POTEN	1.00000E-001	F	Scan Limit 2 (V)
VFINAL	POTEN	1.00000E-001	F	Final E (V)
SCANRATE	QUANT	3.00000E+001	A Real Number
STEPSIZE	QUANT	1.00000E+000	Step Size (mV)
CYCLES	IQUANT	3	Cycles (#)
IMODE	SELECTOR	1	I/E Range Mode
IRANGE	QUANT	3.00000E-001	Max Current (mA)
AREA	QUANT	1.00000E+000	Sample Area (cm^2)
EQDELAY	QUANT	0.00000E+000	Equil. Time (s)
IRCOMP	SELECTOR	0	IRComp
PFCOR	QUANT	5.00000E+001	PF Corr. (ohm)
SAMPLINGMODE	SELECTOR	2	Sampling Mode
EOC	QUANT	0.3246219	Open Circuit (V)
ELECTRODETYPE	SELECTOR	0	Electrode Type
STRIPPING	TOGGLE	F	Used for Stripping
SEQUENCER	TOGGLE	TRUE	Run as Sequence
PSTATMODEL	IQUANT	64	Pstat Model
PSTATSECTION	LABEL	IFC1010-36068	Pstat Section
PSTATSERIALNO	LABEL	36068	Pstat Serial Number
CTRLMODE	IQUANT	1	Control Mode
ELECTROMETER	IQUANT	0	RE=0 or CS=1
IESTAB	IQUANT	2	I/E Stability
CASPEED	IQUANT	4	Control Amp Speed
CONVENTION	IQUANT	1	Current Convention
ICHRANGE	IQUANT	2	Ich Range
ICHRANGEMODE	TOGGLE	F	Ich Auto Range
ICHOFFSETENABLE	TOGGLE	F	Ich Offset Enable
ICHOFFSET	QUANT	0	Ich Offset (V)
ICHFILTER	IQUANT	3	Ich Filter
VCHRANGE	IQUANT	2	Vch Range
VCHRANGEMODE	TOGGLE	F	Vch Auto Range
VCHOFFSETENABLE	TOGGLE	F	Vch Offset Enable
VCHOFFSET	QUANT	0	Vch Offset (V)
VCHFILTER	IQUANT	3	Vch Filter
IERANGELOWERLIMIT	IQUANT	4	I/E Range Lower Limit
IERANGEMODE	TOGGLE	F	I/E AutoRange
IERANGE	IQUANT	9	I/E Range
ACHSELECT	IQUANT	0	Ach Select
ACHRANGE	IQUANT	2	Ach Range
ACHOFFSETENABLE	TOGGLE	F	Ach Offset Enable
ACHOFFSET	QUANT	0	Ach Offset (V)
ACHFILTER	IQUANT	1	Ach Filter
SENSECABLEID	IQUANT	13	Sense Cable ID
PWRCABLEID	IQUANT	13	Power Cable ID
DCCALDATE	LABEL	8/11/2023	DC Calibration Date
ACCALDATE	LABEL	6/2/2023	AC Calibration Date
FRAMEWORKVERSION	LABEL	7.10.3	Framework Version
INSTRUMENTVERSION	LABEL	4.91	Instrument Version
COMMVERSION	LABEL	3.10	Communications Version
CPUPLDVERSION	LABEL	2.22	CPU PLD Version
CTRLPLDVERSION	LABEL	0.00	CTRL PLD Version
PSTATPLDVERSION	LABEL	0.00	PSTAT PLD Version
CURVE1	TABLE
	Pt	T	Vf	Im	Vu	Sig	Ach	IERange	Over	Temp
	#	s	V vs. Ref.	A	V	V	V	#	bits	deg C
	0	0.033333	9.99932E-002	-1.81298E-006	0.00000E+000	1.00003E-001	0.00000E+000	9	...........	1467.52
	4	0.166667	1.04003E-001	-1.03734E-006	0.00000E+000	1.04002E-001	0.00000E+000	9	...........	1467.52
	8	0.3	1.07978E-001	-8.26192E-007	0.00000E+000	1.08000E-001	0.00000E+000	9	...........	1467.52
	12	0.433333	1.11975E-001	-6.49859E-007	0.00000E+000	1.11999E-001	0.00000E+000	9	...........	1467.52
	16	0.566667	1.15994E-001	-5.15545E-007	0.00000E+000	1.15997E-001	0.00000E+000	9	...........	1467.52
	20	0.7	1.19992E-001	-3.78313E-007	0.00000E+000	1.19996E-001	0.00000E+000	9	...........	1467.79
	24	0.833333	1.23960E-001	-2.40146E-007	0.00000E+000	1.23995E-001	0.00000E+000	9	...........	1467.79
	28	0.96667	1.27990E-001	-1.30270E-007	0.00000E+000	1.28006E-001	0.00000E+000	9	...........	1467.79
	32	1.1	1.32012E-001	-2.51974E-008	0.00000E+000	1.32004E-001	0.00000E+000	9	...........	1467.79
	36	1.23333	1.35983E-001	8.78982E-008	0.00000E+000	1.36003E-001	0.00000E+000	9	...........	1467.79
	40	1.36667	1.39977E-001	1.88166E-007	0.00000E+000	1.40002E-001	0.00000E+000	9	...........	1467.79
	44	1.5	1.43987E-001	2.77992E-007	0.00000E+000	1.44000E-001	0.00000E+000	9	...........	1467.79
	48	1.63333	1.47983E-001	3.82264E-007	0.00000E+000	1.47999E-001	0.00000E+000	9	...........	1467.79
	52	1.76667	1.51969E-001	4.67736E-007	0.00000E+000	1.51997E-001	0.00000E+000	9	...........	1467.52
	56	1.9	1.55981E-001	5.53208E-007	0.00000E+000	1.55996E-001	0.00000E+000	9	...........	1467.52
	60	2.03333	1.59971E-001	6.48973E-007	0.00000E+000	1.59995E-001	0.00000E+000	9	...........	1467.52
	64	2.16667	1.63983E-001	7.21301E-007	0.00000E+000	1.64006E-001	0.00000E+000	9	...........	1467.52
	68	2.3	1.67994E-001	8.02836E-007	0.00000E+000	1.68004E-001	0.00000E+000	9	...........	1467.52
	72	2.43333	1.71973E-001	8.94430E-007	0.00000E+000	1.72003E-001	0.00000E+000	9	...........	1467.52
	76	2.56667	1.75982E-001	9.63789E-007	0.00000E+000	1.76002E-001	0.00000E+000	9	...........	1467.52
	80	2.7	1.79986E-001	1.03900E-006	0.00000E+000	1.80000E-001	0.00000E+000	9	...........	1467.52
	84	2.83333	1.83994E-001	1.12718E-006	0.00000E+000	1.83999E-001	0.00000E+000	9	...........	1467.52
	88	2.96667	1.87982E-001	1.18763E-006	0.00000E+000	1.87997E-001	0.00000E+000	9	...........	1467.52
	92	3.1	1.91998E-001	1.25902E-006	0.00000E+000	1.91996E-001	0.00000E+000	9	...........	1467.52
	96	3.23333	1.95973E-001	1.34548E-006	0.00000E+000	1.95995E-001	0.00000E+000	9	...........	1467.52
	100	3.36667	1.99996E-001	1.40176E-006	0.00000E+000	2.00006E-001	0.00000E+000	9	...........	1467.52
	104	3.5	2.03983E-001	1.47207E-006	0.00000E+000	2.04004E-001	0.00000E+000	9	...........	1467.52
	108	3.63333	2.07983E-001	1.55451E-006	0.00000E+000	2.08003E-001	0.00000E+000	9	...........	1467.52
	112	3.76667	2.11980E-001	1.61504E-006	0.00000E+000	2.12001E-001	0.00000E+000	9	...........	1467.52
	116	3.9	2.15962E-001	1.67576E-006	0.00000E+000	2.16000E-001	0.00000E+000	9	...........	1467.52
	120	4.03333	2.19977E-001	1.76171E-006	0.00000E+000	2.19999E-001	0.00000E+000	9	...........	1467.52
	124	4.16667	2.23981E-001	1.82070E-006	0.00000E+000	2.23997E-001	0.00000E+000	9	...........	1467.52
	128	4.3	2.27953E-001	1.88815E-006	0.00000E+000	2.27996E-001	0.00000E+000	9	...........	1467.52
	132	4.43333	2.31974E-001	1.96469E-006	0.00000E+000	2.31994E-001	0.00000E+000	9	...........	1467.52
	136	4.56667	2.35962E-001	2.02082E-006	0.00000E+000	2.36006E-001	0.00000E+000	9	...........	1467.52
	140	4.7	2.39975E-001	2.08969E-006	0.00000E+000	2.40004E-001	0.00000E+000	9	...........	1467.52
	144	4.83333	2.43989E-001	2.17003E-006	0.00000E+000	2.44003E-001	0.00000E+000	9	...........	1467.52
	148	4.96667	2.47979E-001	2.23191E-006	0.00000E+000	2.48001E-001	0.00000E+000	9	...........	1467.52
	152	5.1	2.51970E-001	2.29680E-006	0.00000E+000	2.52000E-001	0.00000E+000	9	...........	1467.52
	156	5.23333	2.55967E-001	2.38105E-006	0.00000E+000	2.55999E-001	0.00000E+000	9	...........	1467.52
	160	5.36667	2.59969E-001	2.44214E-006	0.00000E+000	2.59997E-001	0.00000E+000	9	...........	1467.52
	164	5.5	2.63958E-001	2.50973E-006	0.00000E+000	2.63996E-001	0.00000E+000	9	...........	1467.52
	168	5.63333	2.67950E-001	2.59957E-006	0.00000E+000	2.67994E-001	0.00000E+000	9	...........	1467.52
	172	5.76667	2.71984E-001	2.66788E-006	0.00000E+000	2.72006E-001	0.00000E+000	9	...........	1467.52
	176	5.9	2.75977E-001	2.73952E-006	0.00000E+000	2.76004E-001	0.00000E+000	9	...........	1467.52
	180	6.03333	2.79961E-001	2.82675E-006	0.00000E+000	2.80003E-001	0.00000E+000	9	...........	1467.52
	184	6.16667	2.83989E-001	2.90213E-006	0.00000E+000	2.84001E-001	0.00000E+000	9	...........	1467.52
	188	6.3	2.87995E-001	2.97861E-006	0.00000E+000	2.88000E-001	0.00000E+000	9	...........	1467.52
	192	6.43333	2.91967E-001	3.07589E-006	0.00000E+000	2.91999E-001	0.00000E+000	9	...........	1467.52
	196	6.56667	2.95974E-001	3.16031E-006	0.00000E+000	2.95997E-001	0.00000E+000	9	...........	1467.52
	200	6.7	2.99973E-001	3.23828E-006	0.00000E+000	2.99996E-001	0.00000E+000	9	...........	1467.61
	204	6.83333	2.96002E-001	1.88298E-006	0.00000E+000	2.95997E-001	0.00000E+000	9	...........	1467.61
	208	6.96667	2.91976E-001	1.64815E-006	0.00000E+000	2.91999E-001	0.00000E+000	9	...........	1467.61
	212	7.1	2.87993E-001	1.46918E-006	0.00000E+000	2.88000E-001	0.00000E+000	9	...........	1467.61
	216	7.23333	2.83996E-001	1.33252E-006	0.00000E+000	2.84001E-001	0.00000E+000	9	...........	1467.61
	220	7.36667	2.79984E-001	1.19103E-006	0.00000E+000	2.80003E-001	0.00000E+000	9	...........	1467.61
	224	7.5	2.75992E-001	1.06699E-006	0.00000E+000	2.76004E-001	0.00000E+000	9	...........	1467.61
	228	7.63333	2.71988E-001	9.79652E-007	0.00000E+000	2.72006E-001	0.00000E+000	9	...........	1467.61
	232	7.76667	2.67965E-001	8.63921E-007	0.00000E+000	2.67994E-001	0.00000E+000	9	...........	1467.61
	236	7.9	2.63967E-001	7.68074E-007	0.00000E+000	2.63996E-001	0.00000E+000	9	...........	1467.61
	240	8.03333	2.59972E-001	6.84670E-007	0.00000E+000	2.59997E-001	0.00000E+000	9	...........	1467.61
	244	8.16667	2.55983E-001	5.86036E-007	0.00000E+000	2.55999E-001	0.00000E+000	9	...........	1467.61
	248	8.3	2.51982E-001	4.94375E-007	0.00000E+000	2.52000E-001	0.00000E+000	9	...........	1467.61
	252	8.43333	2.47982E-001	4.30505E-007	0.00000E+000	2.48001E-001	0.00000E+000	9	...........	1467.61
	256	8.56667	2.44004E-001	3.44215E-007	0.00000E+000	2.44003E-001	0.00000E+000	9	...........	1467.61
	260	8.7	2.39999E-001	2.54906E-007	0.00000E+000	2.40004E-001	0.00000E+000	9	...........	1467.61
	264	8.83333	2.35980E-001	1.82228E-007	0.00000E+000	2.36006E-001	0.00000E+000	9	...........	1467.61
	268	8.96667	2.31999E-001	9.67557E-008	0.00000E+000	2.31994E-001	0.00000E+000	9	...........	1467.61
	272	9.1	2.27981E-001	1.09331E-008	0.00000E+000	2.27996E-001	0.00000E+000	9	...........	1467.61
	276	9.23333	2.23983E-001	-5.40718E-008	0.00000E+000	2.23997E-001	0.00000E+000	9	...........	1467.61
	280	9.36667	2.19988E-001	-1.45199E-007	0.00000E+000	2.19999E-001	0.00000E+000	9	...........	1467.61
	284	9.5	2.15968E-001	-2.26935E-007	0.00000E+000	2.16000E-001	0.00000E+000	9	...........	1467.61
	288	9.6333	2.11991E-001	-3.05735E-007	0.00000E+000	2.12001E-001	0.00000E+000	9	...........	1467.60
	292	9.7667	2.07992E-001	-3.95060E-007	0.00000E+000	2.08003E-001	0.00000E+000	9	...........	1467.52
	296	9.9	2.03985E-001	-4.79715E-007	0.00000E+000	2.04004E-001	0.00000E+000	9	...........	1467.52
	300	10.0333	2.00003E-001	-5.56780E-007	0.00000E+000	2.00006E-001	0.00000E+000	9	...........	1467.52
	304	10.1667	1.96003E-001	-6.52728E-007	0.00000E+000	1.95995E-001	0.00000E+000	9	...........	1467.52
	308	10.3	1.92025E-001	-7.47091E-007	0.00000E+000	1.91996E-001	0.00000E+000	9	...........	1467.52
	312	10.4333	1.88000E-001	-8.16433E-007	0.00000E+000	1.87997E-001	0.00000E+000	9	...........	1467.52
	316	10.5667	1.83992E-001	-9.13432E-007	0.00000E+000	1.83999E-001	0.00000E+000	9	...........	1467.52
	320	10.7	1.79992E-001	-1.00408E-006	0.00000E+000	1.80000E-001	0.00000E+000	9	...........	1467.61
	324	10.8333	1.75998E-001	-1.08036E-006	0.00000E+000	1.76002E-001	0.00000E+000	9	...........	1467.61
	328	10.9667	1.71992E-001	-1.17559E-006	0.00000E+000	1.72003E-001	0.00000E+000	9	...........	1467.61
	332	11.1	1.68010E-001	-1.26588E-006	0.00000E+000	1.68004E-001	0.00000E+000	9	...........	1467.61
	336	11.2333	1.63996E-001	-1.34116E-006	0.00000E+000	1.64006E-001	0.00000E+000	9	...........	1467.61
	340	11.3667	1.59989E-001	-1.43154E-006	0.00000E+000	1.59995E-001	0.00000E+000	9	...........	1467.61
	344	11.5	1.55994E-001	-1.52368E-006	0.00000E+000	1.55996E-001	0.00000E+000	9	...........	1467.61
	348	11.6333	1.51977E-001	-1.60003E-006	0.00000E+000	1.51997E-001	0.00000E+000	9	...........	1467.61
	352	11.7667	1.47993E-001	-1.68343E-006	0.00000E+000	1.47999E-001	0.00000E+000	9	...........	1467.61
	356	11.9	1.43999E-001	-1.77683E-006	0.00000E+000	1.44000E-001	0.00000E+000	9	...........	1467.61
	360	12.0333	1.39988E-001	-1.84445E-006	0.00000E+000	1.40002E-001	0.00000E+000	9	...........	1467.61
	364	12.1667	1.35995E-001	-1.93359E-006	0.00000E+000	1.36003E-001	0.00000E+000	9	...........	1467.61
	368	12.3	1.32012E-001	-2.02511E-006	0.00000E+000	1.32004E-001	0.00000E+000	9	...........	1467.61
	372	12.4333	1.27997E-001	-2.09003E-006	0.00000E+000	1.28006E-001	0.00000E+000	9	...........	1467.61
	376	12.5667	1.23985E-001	-2.17950E-006	0.00000E+000	1.23995E-001	0.00000E+000	9	...........	1467.61
	380	12.7	1.19999E-001	-2.26474E-006	0.00000E+000	1.19996E-001	0.00000E+000	9	...........	1467.43
	384	12.8333	1.16010E-001	-2.33485E-006	0.00000E+000	1.15997E-001	0.00000E+000	9	...........	1467.43
	388	12.9667	1.11996E-001	-2.42885E-006	0.00000E+000	1.11999E-001	0.00000E+000	9	...........	1467.43
	392	13.1	1.07992E-001	-2.51599E-006	0.00000E+000	1.08000E-001	0.00000E+000	9	...........	1467.43
	396	13.2333	1.04013E-001	-2.58568E-006	0.00000E+000	1.04002E-001	0.00000E+000	9	...........	1467.43
	400	13.3667	9.99978E-002	-2.67746E-006	0.00000E+000	1.00003E-001	0.00000E+000	9	...........	1467.43
CURVE2	TABLE
	Pt	T	Vf	Im	Vu	Sig	Ach	IERange	Over	Temp
	#	s	V vs. Ref.	A	V	V	V	#	bits	deg C
	401	13.4	1.00989E-001	-1.63804E-006	0.00000E+000	1.01003E-001	0.00000E+000	9	...........	1467.43
	405	13.5333	1.04989E-001	-1.25822E-006	0.00000E+000	1.05001E-001	0.00000E+000	9	...........	1467.43
	409	13.6667	1.08986E-001	-1.03545E-006	0.00000E+000	1.09000E-001	0.00000E+000	9	...........	1467.43
	413	13.8	1.12968E-001	-8.43890E-007	0.00000E+000	1.12999E-001	0.00000E+000	9	...........	1467.43
	417	13.9333	1.16986E-001	-6.63371E-007	0.00000E+000	1.16997E-001	0.00000E+000	9	...........	1467.43
	421	14.0667	1.20977E-001	-5.20683E-007	0.00000E+000	1.20996E-001	0.00000E+000	9	...........	1467.43
	425	14.2	1.24976E-001	-3.89255E-007	0.00000E+000	1.24994E-001	0.00000E+000	9	...........	1467.43
	429	14.3333	1.28999E-001	-2.45717E-007	0.00000E+000	1.29005E-001	0.00000E+000	9	...........	1467.43
	433	14.4667	1.32998E-001	-1.34757E-007	0.00000E+000	1.33004E-001	0.00000E+000	9	...........	1467.43
	437	14.6	1.36978E-001	-3.32209E-008	0.00000E+000	1.37003E-001	0.00000E+000	9	...........	1467.43
	441	14.7333	1.40998E-001	9.06005E-008	0.00000E+000	1.41001E-001	0.00000E+000	9	...........	1467.70
	445	14.8667	1.44980E-001	1.88533E-007	0.00000E+000	1.45000E-001	0.00000E+000	9	...........	1467.70
	449	15	1.48972E-001	2.76875E-007	0.00000E+000	1.48998E-001	0.00000E+000	9	...........	1467.70
	453	15.1333	1.52964E-001	3.91055E-007	0.00000E+000	1.52997E-001	0.00000E+000	9	...........	1467.70
	457	15.2667	1.56994E-001	4.80530E-007	0.00000E+000	1.56996E-001	0.00000E+000	9	...........	1467.70
	461	15.4	1.60969E-001	5.65302E-007	0.00000E+000	1.60994E-001	0.00000E+000	9	...........	1467.70
	465	15.5333	1.64964E-001	6.63452E-007	0.00000E+000	1.65005E-001	0.00000E+000	9	...........	1467.70
	469	15.6667	1.68988E-001	7.36297E-007	0.00000E+000	1.69004E-001	0.00000E+000	9	...........	1467.52
	473	15.8	1.72984E-001	8.15330E-007	0.00000E+000	1.73003E-001	0.00000E+000	9	...........	1467.52
	477	15.9333	1.76971E-001	9.15782E-007	0.00000E+000	1.77001E-001	0.00000E+000	9	...........	1467.52
	481	16.0667	1.80996E-001	9.82638E-007	0.00000E+000	1.81000E-001	0.00000E+000	9	...........	1467.52
	485	16.2	1.84976E-001	1.05974E-006	0.00000E+000	1.84998E-001	0.00000E+000	9	...........	1467.52
	489	16.3333	1.88973E-001	1.14676E-006	0.00000E+000	1.88997E-001	0.00000E+000	9	...........	1467.52
	493	16.4667	1.93000E-001	1.21103E-006	0.00000E+000	1.92996E-001	0.00000E+000	9	...........	1467.52
	497	16.6	1.96984E-001	1.27954E-006	0.00000E+000	1.96994E-001	0.00000E+000	9	...........	1467.52
	501	16.7333	2.00985E-001	1.36386E-006	0.00000E+000	2.01005E-001	0.00000E+000	9	...........	1467.52
	505	16.8667	2.04989E-001	1.43242E-006	0.00000E+000	2.05004E-001	0.00000E+000	9	...........	1467.52
	509	17	2.08977E-001	1.49172E-006	0.00000E+000	2.09003E-001	0.00000E+000	9	...........	1467.52
	513	17.1333	2.12964E-001	1.56882E-006	0.00000E+000	2.13001E-001	0.00000E+000	9	...........	1467.52
	517	17.2667	2.16969E-001	1.63899E-006	0.00000E+000	2.17000E-001	0.00000E+000	9	...........	1467.52
	521	17.4	2.20977E-001	1.69833E-006	0.00000E+000	2.20998E-001	0.00000E+000	9	...........	1467.52
	525	17.5333	2.24968E-001	1.78490E-006	0.00000E+000	2.24997E-001	0.00000E+000	9	...........	1467.52
	529	17.6667	2.28963E-001	1.84705E-006	0.00000E+000	2.28996E-001	0.00000E+000	9	...........	1467.70
	533	17.8	2.32981E-001	1.90443E-006	0.00000E+000	2.32994E-001	0.00000E+000	9	...........	1467.70
	537	17.9333	2.36988E-001	1.99383E-006	0.00000E+000	2.37005E-001	0.00000E+000	9	...........	1467.70
	541	18.0667	2.40964E-001	2.05498E-006	0.00000E+000	2.41004E-001	0.00000E+000	9	...........	1467.70
	545	18.2	2.44987E-001	2.11837E-006	0.00000E+000	2.45002E-001	0.00000E+000	9	...........	1467.70
	549	18.3333	2.48977E-001	2.19707E-006	0.00000E+000	2.49001E-001	0.00000E+000	9	...........	1467.70
	553	18.4667	2.52961E-001	2.26551E-006	0.00000E+000	2.53000E-001	0.00000E+000	9	...........	1467.70
	557	18.6	2.56978E-001	2.32597E-006	0.00000E+000	2.56998E-001	0.00000E+000	9	...........	1467.70
	561	18.7333	2.60955E-001	2.41552E-006	0.00000E+000	2.60997E-001	0.00000E+000	9	...........	1467.70
	565	18.8667	2.64963E-001	2.47757E-006	0.00000E+000	2.64995E-001	0.00000E+000	9	...........	1467.70
	569	19	2.68984E-001	2.54953E-006	0.00000E+000	2.68994E-001	0.00000E+000	9	...........	1467.70
	573	19.1333	2.72973E-001	2.63410E-006	0.00000E+000	2.73005E-001	0.00000E+000	9	...........	1467.70
	577	19.2667	2.76986E-001	2.70304E-006	0.00000E+000	2.77004E-001	0.00000E+000	9	...........	1467.70
	581	19.4	2.80964E-001	2.77999E-006	0.00000E+000	2.81002E-001	0.00000E+000	9	...........	1467.70
	585	19.5333	2.84981E-001	2.87159E-006	0.00000E+000	2.85001E-001	0.00000E+000	9	...........	1467.70
	589	19.6667	2.88970E-001	2.94613E-006	0.00000E+000	2.89000E-001	0.00000E+000	9	...........	1467.52
	593	19.8	2.92964E-001	3.02386E-006	0.00000E+000	2.92998E-001	0.00000E+000	9	...........	1467.52
[...]
	869	29	1.68996E-001	6.83952E-007	0.00000E+000	1.69004E-001	0.00000E+000	9	...........	1467.88
	873	29.1333	1.72984E-001	7.78432E-007	0.00000E+000	1.73003E-001	0.00000E+000	9	...........	1467.88
	877	29.2667	1.76974E-001	8.64789E-007	0.00000E+000	1.77001E-001	0.00000E+000	9	...........	1467.88
	881	29.4	1.80986E-001	9.33213E-007	0.00000E+000	1.81000E-001	0.00000E+000	9	...........	1467.88
	885	29.5333	1.84981E-001	1.01662E-006	0.00000E+000	1.84998E-001	0.00000E+000	9	...........	1467.88
	889	29.6667	1.88975E-001	1.09810E-006	0.00000E+000	1.88997E-001	0.00000E+000	9	...........	1467.88
	893	29.8	1.92997E-001	1.15974E-006	0.00000E+000	1.92996E-001	0.00000E+000	9	...........	1467.88
	897	29.9333	1.96982E-001	1.24373E-006	0.00000E+000	1.96994E-001	0.00000E+000	9	...........	1467.88
	901	30.0667	2.00977E-001	1.31872E-006	0.00000E+000	2.01005E-001	0.00000E+000	9	...........	1467.88
	905	30.2	2.04997E-001	1.37645E-006	0.00000E+000	2.05004E-001	0.00000E+000	9	...........	1467.88
	909	30.3333	2.08987E-001	1.45142E-006	0.00000E+000	2.09003E-001	0.00000E+000	9	...........	1467.88
	913	30.4667	2.12963E-001	1.52164E-006	0.00000E+000	2.13001E-001	0.00000E+000	9	...........	1467.88
	917	30.6	2.16964E-001	1.58191E-006	0.00000E+000	2.17000E-001	0.00000E+000	9	...........	1467.88
	921	30.7333	2.20982E-001	1.66173E-006	0.00000E+000	2.20998E-001	0.00000E+000	9	...........	1467.52
	925	30.8667	2.24963E-001	1.73477E-006	0.00000E+000	2.24997E-001	0.00000E+000	9	...........	1467.52
	929	31	2.28964E-001	1.79261E-006	0.00000E+000	2.28996E-001	0.00000E+000	9	...........	1467.52
	933	31.1333	2.32977E-001	1.87092E-006	0.00000E+000	2.32994E-001	0.00000E+000	9	...........	1467.52
	937	31.2667	2.36980E-001	1.94267E-006	0.00000E+000	2.37005E-001	0.00000E+000	9	...........	1467.52
	941	31.4	2.40965E-001	1.99985E-006	0.00000E+000	2.41004E-001	0.00000E+000	9	...........	1467.52
	945	31.5333	2.44991E-001	2.07705E-006	0.00000E+000	2.45002E-001	0.00000E+000	9	...........	1467.52
	949	31.6667	2.48979E-001	2.15058E-006	0.00000E+000	2.49001E-001	0.00000E+000	9	...........	1467.52
	953	31.8	2.52967E-001	2.21164E-006	0.00000E+000	2.53000E-001	0.00000E+000	9	...........	1467.52
	957	31.9333	2.56978E-001	2.29201E-006	0.00000E+000	2.56998E-001	0.00000E+000	9	...........	1467.52
	961	32.0667	2.60962E-001	2.36346E-006	0.00000E+000	2.60997E-001	0.00000E+000	9	...........	1467.52
	965	32.2	2.64961E-001	2.42723E-006	0.00000E+000	2.64995E-001	0.00000E+000	9	...........	1467.52
	969	32.3333	2.68988E-001	2.50749E-006	0.00000E+000	2.68994E-001	0.00000E+000	9	...........	1467.52
	973	32.4667	2.72986E-001	2.58700E-006	0.00000E+000	2.73005E-001	0.00000E+000	9	...........	1467.52
	977	32.6	2.76977E-001	2.65043E-006	0.00000E+000	2.77004E-001	0.00000E+000	9	...........	1467.52
	981	32.7333	2.80962E-001	2.73597E-006	0.00000E+000	2.81002E-001	0.00000E+000	9	...........	1467.97
	985	32.8667	2.84989E-001	2.82143E-006	0.00000E+000	2.85001E-001	0.00000E+000	9	...........	1467.97
	989	33	2.88990E-001	2.89147E-006	0.00000E+000	2.89000E-001	0.00000E+000	9	...........	1467.97
	993	33.1333	2.92974E-001	2.98430E-006	0.00000E+000	2.92998E-001	0.00000E+000	9	...........	1467.97
	997	33.2667	2.96988E-001	3.07271E-006	0.00000E+000	2.96997E-001	0.00000E+000	9	...........	1467.97
	1001	33.4	2.98991E-001	2.07246E-006	0.00000E+000	2.98996E-001	0.00000E+000	9	...........	1467.97
	1005	33.5333	2.95003E-001	1.71282E-006	0.00000E+000	2.94998E-001	0.00000E+000	9	...........	1467.97
	1009	33.6667	2.90983E-001	1.49742E-006	0.00000E+000	2.90999E-001	0.00000E+000	9	...........	1467.79
	1013	33.8	2.86996E-001	1.31977E-006	0.00000E+000	2.87000E-001	0.00000E+000	9	...........	1467.79
	1017	33.9333	2.82993E-001	1.18302E-006	0.00000E+000	2.83002E-001	0.00000E+000	9	...........	1467.79
	1021	34.0667	2.78978E-001	1.05770E-006	0.00000E+000	2.79003E-001	0.00000E+000	9	...........	1467.79
	1025	34.2	2.74988E-001	9.39001E-007	0.00000E+000	2.75004E-001	0.00000E+000	9	...........	1467.79
	1029	34.3333	2.71009E-001	8.38900E-007	0.00000E+000	2.71006E-001	0.00000E+000	9	...........	1467.79
	1033	34.4667	2.66970E-001	7.39399E-007	0.00000E+000	2.66995E-001	0.00000E+000	9	...........	1467.79
	1037	34.6	2.62978E-001	6.36829E-007	0.00000E+000	2.62996E-001	0.00000E+000	9	...........	1467.79
	1041	34.7333	2.58985E-001	5.51974E-007	0.00000E+000	2.58998E-001	0.00000E+000	9	...........	1467.52
	1045	34.8667	2.54963E-001	4.69921E-007	0.00000E+000	2.54999E-001	0.00000E+000	9	...........	1467.52
	1049	35	2.50987E-001	3.75708E-007	0.00000E+000	2.51000E-001	0.00000E+000	9	...........	1467.52
	1053	35.1333	2.46994E-001	3.06600E-007	0.00000E+000	2.47002E-001	0.00000E+000	9	...........	1467.52
	1057	35.2667	2.42996E-001	2.22412E-007	0.00000E+000	2.43003E-001	0.00000E+000	9	...........	1467.52
	1061	35.4	2.38989E-001	1.26097E-007	0.00000E+000	2.39005E-001	0.00000E+000	9	...........	1467.52
	1065	35.5333	2.34998E-001	5.74058E-008	0.00000E+000	2.35006E-001	0.00000E+000	9	...........	1467.52
	1069	35.6667	2.30997E-001	-2.43300E-008	0.00000E+000	2.30995E-001	0.00000E+000	9	...........	1467.43
	1073	35.8	2.26972E-001	-1.15974E-007	0.00000E+000	2.26996E-001	0.00000E+000	9	...........	1467.43
	1077	35.9333	2.22983E-001	-1.93907E-007	0.00000E+000	2.22998E-001	0.00000E+000	9	...........	1467.43
	1081	36.0667	2.18992E-001	-2.73474E-007	0.00000E+000	2.18999E-001	0.00000E+000	9	...........	1467.43
	1085	36.2	2.14977E-001	-3.67704E-007	0.00000E+000	2.15000E-001	0.00000E+000	9	...........	1467.43
	1089	36.3333	2.10979E-001	-4.41650E-007	0.00000E+000	2.11002E-001	0.00000E+000	9	...........	1467.43
	1093	36.4667	2.06980E-001	-5.22902E-007	0.00000E+000	2.07003E-001	0.00000E+000	9	...........	1467.43
	1097	36.6	2.02991E-001	-6.21218E-007	0.00000E+000	2.03005E-001	0.00000E+000	9	...........	1467.43
	1101	36.7333	1.99004E-001	-6.96549E-007	0.00000E+000	1.99006E-001	0.00000E+000	9	...........	1467.97
	1105	36.8667	1.94997E-001	-7.78168E-007	0.00000E+000	1.94995E-001	0.00000E+000	9	...........	1467.97
	1109	37	1.90980E-001	-8.82539E-007	0.00000E+000	1.90996E-001	0.00000E+000	9	...........	1467.97
	1113	37.1333	1.87003E-001	-9.57386E-007	0.00000E+000	1.86998E-001	0.00000E+000	9	...........	1467.97
	1117	37.2667	1.83000E-001	-1.04356E-006	0.00000E+000	1.82999E-001	0.00000E+000	9	...........	1467.97
	1121	37.4	1.78977E-001	-1.15098E-006	0.00000E+000	1.79000E-001	0.00000E+000	9	...........	1467.97
	1125	37.5333	1.74998E-001	-1.22531E-006	0.00000E+000	1.75002E-001	0.00000E+000	9	...........	1467.97
	1129	37.6667	1.70990E-001	-1.30765E-006	0.00000E+000	1.71003E-001	0.00000E+000	9	...........	1467.61
	1133	37.8	1.67010E-001	-1.39979E-006	0.00000E+000	1.67005E-001	0.00000E+000	9	...........	1467.61
	1137	37.9333	1.62983E-001	-1.48223E-006	0.00000E+000	1.63006E-001	0.00000E+000	9	...........	1467.61
	1141	38.0667	1.58980E-001	-1.56467E-006	0.00000E+000	1.58995E-001	0.00000E+000	9	...........	1467.61
	1145	38.2	1.55008E-001	-1.66979E-006	0.00000E+000	1.54996E-001	0.00000E+000	9	...........	1467.61
	1149	38.3333	1.50980E-001	-1.74270E-006	0.00000E+000	1.50998E-001	0.00000E+000	9	...........	1467.61
	1153	38.4667	1.46998E-001	-1.82042E-006	0.00000E+000	1.46999E-001	0.00000E+000	9	...........	1467.61
	1157	38.6	1.43014E-001	-1.91628E-006	0.00000E+000	1.43001E-001	0.00000E+000	9	...........	1467.61
	1161	38.7333	1.39012E-001	-1.98639E-006	0.00000E+000	1.39002E-001	0.00000E+000	9	...........	1467.52
	1165	38.8667	1.34997E-001	-2.06973E-006	0.00000E+000	1.35003E-001	0.00000E+000	9	...........	1467.52
	1169	39	1.31016E-001	-2.16653E-006	0.00000E+000	1.31005E-001	0.00000E+000	9	...........	1467.52
	1173	39.1333	1.26992E-001	-2.23618E-006	0.00000E+000	1.27006E-001	0.00000E+000	9	...........	1467.52
	1177	39.2667	1.22985E-001	-2.31870E-006	0.00000E+000	1.22995E-001	0.00000E+000	9	...........	1467.52
	1181	39.4	1.19004E-001	-2.41438E-006	0.00000E+000	1.18996E-001	0.00000E+000	9	...........	1467.52
	1185	39.5333	1.14997E-001	-2.49367E-006	0.00000E+000	1.14998E-001	0.00000E+000	9	...........	1467.52
	1189	39.6667	1.10992E-001	-2.57912E-006	0.00000E+000	1.10999E-001	0.00000E+000	9	...........	1467.52
	1193	39.8	1.06996E-001	-2.66718E-006	0.00000E+000	1.07001E-001	0.00000E+000	9	...........	1467.52
	1197	39.9333	1.03015E-001	-2.74556E-006	0.00000E+000	1.03002E-001	0.00000E+000	9	...........	1467.52
	1200	40.0333	1.00003E-001	-2.80852E-006	0.00000E+000	1.00003E-001	0.00000E+000	9	...........	1467.52
CURVE4	TABLE
	Pt	T	Vf	Im	Vu	Sig	Ach	IERange	Over	Temp
	#	s	V vs. Ref.	A	V	V	V	#	bits	deg C
	1201	40.0667	9.99940E-002	-2.29775E-006	0.00000E+000	1.00003E-001	0.00000E+000	9	...........	1467.52