File: input/ECSA_test/CV_ECSA_#2_#9.DTA
EXPLAIN
TAG	CV
TITLE	LABEL	ECSA	Test Identifier
DATE	LABEL	2/13/2024	Date
TIME	LABEL	12:05:41	Time
NOTES	NOTES	1	Notes...

PSTAT	PSTAT	IFC1010-36068	Potentiostat
VINIT	POTEN	1.00000E-001	F	Initial E (V)
VLIMIT1	POTEN	3.00000E-001	F	Scan Limit 1 (V)
VLIMIT2	POTEN	1.00000E-001	F	Scan Limit 2 (V)
VFINAL	POTEN	1.00000E-001	F	Final E (V)
SCANRATE	QUANT	8.99998E+001	A Real Number
STEPSIZE	QUANT	1.00000E+000	Step Size (mV)
CYCLES	IQUANT	3	Cycles (#)
IMODE	SELECTOR	1	I/E Range Mode
IRANGE	QUANT	3.00000E-001	Max Current (mA)
AREA	QUANT	1.00000E+000	Sample Area (cm^2)
EQDELAY	QUANT	0.00000E+000	Equil. Time (s)
IRCOMP	SELECTOR	0	IRComp
PFCOR	QUANT	5.00000E+001	PF Corr. (ohm)
SAMPLINGMODE	SELECTOR	2	Sampling Mode
EOC	QUANT	0.3246219	Open Circuit (V)
ELECTRODETYPE	SELECTOR	0	Electrode Type
STRIPPING	TOGGLE	F	Used for Stripping
SEQUENCER	TOGGLE	TRUE	Run as Sequence
PSTATMODEL	IQUANT	64	Pstat Model
PSTATSECTION	LABEL	IFC1010-36068	Pstat Section
PSTATSERIALNO	LABEL	36068	Pstat Serial Number
CTRLMODE	IQUANT	1	Control Mode
ELECTROMETER	IQUANT	0	RE=0 or CS=1
IESTAB	IQUANT	2	I/E Stability
CASPEED	IQUANT	4	Control Amp Speed
CONVENTION	IQUANT	1	Current Convention
ICHRANGE	IQUANT	2	Ich Range
ICHRANGEMODE	TOGGLE	F	Ich Auto Range
ICHOFFSETENABLE	TOGGLE	F	Ich Offset Enable
ICHOFFSET	QUANT	0	Ich Offset (V)
ICHFILTER	IQUANT	3	Ich Filter
VCHRANGE	IQUANT	2	Vch Range
VCHRANGEMODE	TOGGLE	F	Vch Auto Range
VCHOFFSETENABLE	TOGGLE	F	Vch Offset Enable
VCHOFFSET	QUANT	0	Vch Offset (V)
VCHFILTER	IQUANT	3	Vch Filter
IERANGELOWERLIMIT	IQUANT	4	I/E Range Lower Limit
IERANGEMODE	TOGGLE	F	I/E AutoRange
IERANGE	IQUANT	9	I/E Range
ACHSELECT	IQUANT	0	Ach Select
ACHRANGE	IQUANT	2	Ach Range
ACHOFFSETENABLE	TOGGLE	F	Ach Offset Enable
ACHOFFSET	QUANT	0	Ach Offset (V)
ACHFILTER	IQUANT	1	Ach Filter
SENSECABLEID	IQUANT	13	Sense Cable ID
PWRCABLEID	IQUANT	13	Power Cable ID
DCCALDATE	LABEL	8/11/2023	DC Calibration Date
ACCALDATE	LABEL	6/2/2023	AC Calibration Date
FRAMEWORKVERSION	LABEL	7.10.3	Framework Version
INSTRUMENTVERSION	LABEL	4.91	Instrument Version
COMMVERSION	LABEL	3.10	Communications Version
CPUPLDVERSION	LABEL	2.22	CPU PLD Version
CTRLPLDVERSION	LABEL	0.00	CTRL PLD Version
PSTATPLDVERSION	LABEL	0.00	PSTAT PLD Version
CURVE1	TABLE
	Pt	T	Vf	Im	Vu	Sig	Ach	IERange	Over	Temp
	#	s	V vs. Ref.	A	V	V	V	#	bits	deg C
	0	0.011117	9.99878E-002	-3.33588E-006	0.00000E+000	1.00003E-001	0.00000E+000	9	...........	1467.52
	5	0.0667	1.04963E-001	-1.39723E-006	0.00000E+000	1.05001E-001	0.00000E+000	9	...........	1467.52
	10	0.122283	1.09965E-001	-9.66170E-007	0.00000E+000	1.10000E-001	0.00000E+000	9	...........	1467.52
	15	0.177867	1.14987E-001	-6.26223E-007	0.00000E+000	1.15010E-001	0.00000E+000	9	...........	1467.52
	20	0.23345	1.19979E-001	-3.77239E-007	0.00000E+000	1.20009E-001	0.00000E+000	9	...........	1467.52
	25	0.289033	1.24965E-001	-1.45645E-007	0.00000E+000	1.25007E-001	0.00000E+000	9	...........	1467.52
	30	0.344617	1.29987E-001	8.99073E-008	0.00000E+000	1.30018E-001	0.00000E+000	9	...........	1467.52
	35	0.4002	1.34982E-001	3.11878E-007	0.00000E+000	1.35016E-001	0.00000E+000	9	...........	1467.52
	40	0.455783	1.39975E-001	5.06435E-007	0.00000E+000	1.40014E-001	0.00000E+000	9	...........	1467.52
	45	0.511367	1.44995E-001	6.66209E-007	0.00000E+000	1.45025E-001	0.00000E+000	9	...........	1467.52
	50	0.56695	1.49986E-001	8.29192E-007	0.00000E+000	1.50023E-001	0.00000E+000	9	...........	1467.52
	55	0.622533	1.54998E-001	1.01367E-006	0.00000E+000	1.55021E-001	0.00000E+000	9	...........	1467.52
	60	0.678117	1.60000E-001	1.19204E-006	0.00000E+000	1.60032E-001	0.00000E+000	9	...........	1467.52
	65	0.7337	1.64979E-001	1.32957E-006	0.00000E+000	1.65030E-001	0.00000E+000	9	...........	1467.70
	70	0.789283	1.70017E-001	1.46117E-006	0.00000E+000	1.70041E-001	0.00000E+000	9	...........	1467.70
	75	0.844867	1.75007E-001	1.58542E-006	0.00000E+000	1.75039E-001	0.00000E+000	9	...........	1467.70
	80	0.90045	1.79999E-001	1.73878E-006	0.00000E+000	1.80038E-001	0.00000E+000	9	...........	1467.70
	85	0.95603	1.85018E-001	1.89860E-006	0.00000E+000	1.85048E-001	0.00000E+000	9	...........	1467.70
	90	1.01162	1.90003E-001	1.98646E-006	0.00000E+000	1.90047E-001	0.00000E+000	9	...........	1467.70
	95	1.0672	1.95002E-001	2.08263E-006	0.00000E+000	1.95045E-001	0.00000E+000	9	...........	1467.70
	100	1.12278	2.00020E-001	2.23840E-006	0.00000E+000	2.00056E-001	0.00000E+000	9	...........	1467.70
	105	1.17837	2.05026E-001	2.36690E-006	0.00000E+000	2.05054E-001	0.00000E+000	9	...........	1467.70
	110	1.23395	2.10013E-001	2.48102E-006	0.00000E+000	2.10052E-001	0.00000E+000	9	...........	1467.70
	115	1.28953	2.15012E-001	2.57699E-006	0.00000E+000	2.15063E-001	0.00000E+000	9	...........	1467.70
	120	1.34512	2.20021E-001	2.67572E-006	0.00000E+000	2.20061E-001	0.00000E+000	9	...........	1467.70
	125	1.4007	2.25016E-001	2.80387E-006	0.00000E+000	2.25059E-001	0.00000E+000	9	...........	1467.70
	130	1.45628	2.30016E-001	2.93528E-006	0.00000E+000	2.30070E-001	0.00000E+000	9	...........	1467.70
	135	1.51187	2.35019E-001	3.02559E-006	0.00000E+000	2.35068E-001	0.00000E+000	9	...........	1467.70
	140	1.56745	2.40020E-001	3.10894E-006	0.00000E+000	2.40067E-001	0.00000E+000	9	...........	1467.70
	145	1.62303	2.45032E-001	3.22576E-006	0.00000E+000	2.45077E-001	0.00000E+000	9	...........	1467.70
	150	1.67862	2.50028E-001	3.36674E-006	0.00000E+000	2.50076E-001	0.00000E+000	9	...........	1467.70
	155	1.7342	2.55021E-001	3.47771E-006	0.00000E+000	2.55074E-001	0.00000E+000	9	...........	1467.52
	160	1.78978	2.60038E-001	3.56922E-006	0.00000E+000	2.60085E-001	0.00000E+000	9	...........	1467.52
	165	1.84537	2.65030E-001	3.67246E-006	0.00000E+000	2.65083E-001	0.00000E+000	9	...........	1467.52
	170	1.90095	2.70046E-001	3.80768E-006	0.00000E+000	2.70081E-001	0.00000E+000	9	...........	1467.52
	175	1.95653	2.75053E-001	3.95202E-006	0.00000E+000	2.75092E-001	0.00000E+000	9	...........	1467.52
	180	2.01212	2.80036E-001	4.06989E-006	0.00000E+000	2.80090E-001	0.00000E+000	9	...........	1467.52
	185	2.0677	2.85051E-001	4.16853E-006	0.00000E+000	2.85088E-001	0.00000E+000	9	...........	1467.52
	190	2.12328	2.90058E-001	4.29407E-006	0.00000E+000	2.90099E-001	0.00000E+000	9	...........	1467.52
	195	2.17887	2.95071E-001	4.45866E-006	0.00000E+000	2.95097E-001	0.00000E+000	9	...........	1467.52
	200	2.23445	3.00055E-001	4.62034E-006	0.00000E+000	3.00096E-001	0.00000E+000	9	...........	1467.52
	205	2.29003	2.95120E-001	1.19325E-006	0.00000E+000	2.95097E-001	0.00000E+000	9	...........	1467.52
	210	2.34562	2.90101E-001	7.07757E-007	0.00000E+000	2.90099E-001	0.00000E+000	9	...........	1467.52
	215	2.4012	2.85102E-001	3.82794E-007	0.00000E+000	2.85088E-001	0.00000E+000	9	...........	1467.52
	220	2.45678	2.80084E-001	1.45538E-007	0.00000E+000	2.80090E-001	0.00000E+000	9	...........	1467.52
	225	2.51237	2.75088E-001	-7.39271E-008	0.00000E+000	2.75092E-001	0.00000E+000	9	...........	1467.52
	230	2.56795	2.70088E-001	-3.06773E-007	0.00000E+000	2.70081E-001	0.00000E+000	9	...........	1467.52
	235	2.62353	2.65066E-001	-4.87848E-007	0.00000E+000	2.65083E-001	0.00000E+000	9	...........	1467.52
	240	2.67912	2.60076E-001	-6.37249E-007	0.00000E+000	2.60085E-001	0.00000E+000	9	...........	1467.52
	245	2.7347	2.55054E-001	-7.70261E-007	0.00000E+000	2.55074E-001	0.00000E+000	9	...........	1467.52
	250	2.79028	2.50071E-001	-9.36401E-007	0.00000E+000	2.50076E-001	0.00000E+000	9	...........	1467.52
	255	2.84587	2.45089E-001	-1.10976E-006	0.00000E+000	2.45077E-001	0.00000E+000	9	...........	1467.52
	260	2.90145	2.40065E-001	-1.24578E-006	0.00000E+000	2.40067E-001	0.00000E+000	9	...........	1467.52
	265	2.95703	2.35071E-001	-1.34411E-006	0.00000E+000	2.35068E-001	0.00000E+000	9	...........	1467.52
	270	3.01262	2.30057E-001	-1.46780E-006	0.00000E+000	2.30070E-001	0.00000E+000	9	...........	1467.52
	275	3.0682	2.25050E-001	-1.61780E-006	0.00000E+000	2.25059E-001	0.00000E+000	9	...........	1467.52
	280	3.12378	2.20060E-001	-1.76760E-006	0.00000E+000	2.20061E-001	0.00000E+000	9	...........	1467.52
	285	3.17937	2.15057E-001	-1.87265E-006	0.00000E+000	2.15063E-001	0.00000E+000	9	...........	1467.52
	290	3.23495	2.10052E-001	-1.96677E-006	0.00000E+000	2.10052E-001	0.00000E+000	9	...........	1467.52
	295	3.29053	2.05080E-001	-2.09086E-006	0.00000E+000	2.05054E-001	0.00000E+000	9	...........	1467.52
	300	3.34612	2.00071E-001	-2.24858E-006	0.00000E+000	2.00056E-001	0.00000E+000	9	...........	1467.52
	305	3.4017	1.95056E-001	-2.38525E-006	0.00000E+000	1.95045E-001	0.00000E+000	9	...........	1467.52
	310	3.45728	1.90035E-001	-2.49661E-006	0.00000E+000	1.90047E-001	0.00000E+000	9	...........	1467.52
	315	3.51287	1.85049E-001	-2.60948E-006	0.00000E+000	1.85048E-001	0.00000E+000	9	...........	1467.52
	320	3.56845	1.80035E-001	-2.74735E-006	0.00000E+000	1.80038E-001	0.00000E+000	9	...........	1467.52
	325	3.62403	1.75044E-001	-2.90642E-006	0.00000E+000	1.75039E-001	0.00000E+000	9	...........	1467.52
	330	3.67962	1.70057E-001	-3.04174E-006	0.00000E+000	1.70041E-001	0.00000E+000	9	...........	1467.52
	335	3.7352	1.65014E-001	-3.15059E-006	0.00000E+000	1.65030E-001	0.00000E+000	9	...........	1467.70
	340	3.79078	1.60032E-001	-3.28140E-006	0.00000E+000	1.60032E-001	0.00000E+000	9	...........	1467.70
	345	3.84637	1.55034E-001	-3.46774E-006	0.00000E+000	1.55021E-001	0.00000E+000	9	...........	1467.70
	350	3.90195	1.50018E-001	-3.60581E-006	0.00000E+000	1.50023E-001	0.00000E+000	9	...........	1467.70
	355	3.95753	1.45028E-001	-3.72359E-006	0.00000E+000	1.45025E-001	0.00000E+000	9	...........	1467.70
	360	4.01312	1.40015E-001	-3.85580E-006	0.00000E+000	1.40014E-001	0.00000E+000	9	...........	1467.70
	365	4.0687	1.35024E-001	-3.99798E-006	0.00000E+000	1.35016E-001	0.00000E+000	9	...........	1467.70
	370	4.12428	1.30035E-001	-4.16528E-006	0.00000E+000	1.30018E-001	0.00000E+000	9	...........	1467.70
	375	4.17987	1.25006E-001	-4.32540E-006	0.00000E+000	1.25007E-001	0.00000E+000	9	...........	1467.70
	380	4.23545	1.20013E-001	-4.43045E-006	0.00000E+000	1.20009E-001	0.00000E+000	9	...........	1467.70
	385	4.29103	1.15007E-001	-4.56546E-006	0.00000E+000	1.15010E-001	0.00000E+000	9	...........	1467.70
	390	4.34662	1.09993E-001	-4.74539E-006	0.00000E+000	1.10000E-001	0.00000E+000	9	...........	1467.70
	395	4.4022	1.05000E-001	-4.91388E-006	0.00000E+000	1.05001E-001	0.00000E+000	9	...........	1467.70
	400	4.45778	1.00008E-001	-5.05762E-006	0.00000E+000	1.00003E-001	0.00000E+000	9	...........	1467.70
CURVE2	TABLE
	Pt	T	Vf	Im	Vu	Sig	Ach	IERange	Over	Temp
	#	s	V vs. Ref.	A	V	V	V	#	bits	deg C
	401	4.4689	1.00964E-001	-2.35919E-006	0.00000E+000	1.01003E-001	0.00000E+000	9	...........	1467.70
	406	4.52448	1.05964E-001	-1.59334E-006	0.00000E+000	1.06001E-001	0.00000E+000	9	...........	1467.70
	411	4.58007	1.10972E-001	-1.13452E-006	0.00000E+000	1.11012E-001	0.00000E+000	9	...........	1467.70
	416	4.63565	1.15985E-001	-7.79382E-007	0.00000E+000	1.16010E-001	0.00000E+000	9	...........	1467.70
	421	4.69123	1.20972E-001	-4.59582E-007	0.00000E+000	1.21008E-001	0.00000E+000	9	...........	1467.70
	426	4.74682	1.25978E-001	-1.87794E-007	0.00000E+000	1.26019E-001	0.00000E+000	9	...........	1467.52
	431	4.8024	1.30993E-001	7.46388E-009	0.00000E+000	1.31017E-001	0.00000E+000	9	...........	1467.52
	436	4.85798	1.35978E-001	2.20915E-007	0.00000E+000	1.36015E-001	0.00000E+000	9	...........	1467.52
	441	4.91357	1.41009E-001	4.68846E-007	0.00000E+000	1.41026E-001	0.00000E+000	9	...........	1467.52
	446	4.96915	1.45987E-001	6.48117E-007	0.00000E+000	1.46024E-001	0.00000E+000	9	...........	1467.52
	451	5.02473	1.50975E-001	8.01577E-007	0.00000E+000	1.51023E-001	0.00000E+000	9	...........	1467.52
	456	5.08032	1.56002E-001	9.65111E-007	0.00000E+000	1.56034E-001	0.00000E+000	9	...........	1467.52
	461	5.1359	1.60985E-001	1.12263E-006	0.00000E+000	1.61032E-001	0.00000E+000	9	...........	1467.52
	466	5.19148	1.65971E-001	1.30786E-006	0.00000E+000	1.66030E-001	0.00000E+000	9	...........	1467.52
	471	5.24707	1.70999E-001	1.45045E-006	0.00000E+000	1.71041E-001	0.00000E+000	9	...........	1467.52
	476	5.30265	1.76002E-001	1.55725E-006	0.00000E+000	1.76039E-001	0.00000E+000	9	...........	1467.52
	481	5.35823	1.81004E-001	1.68700E-006	0.00000E+000	1.81037E-001	0.00000E+000	9	...........	1467.52
	486	5.41382	1.86017E-001	1.84613E-006	0.00000E+000	1.86048E-001	0.00000E+000	9	...........	1467.52
	491	5.4694	1.90998E-001	2.00059E-006	0.00000E+000	1.91046E-001	0.00000E+000	9	...........	1467.52
	496	5.52498	1.96010E-001	2.09486E-006	0.00000E+000	1.96045E-001	0.00000E+000	9	...........	1467.52
	501	5.58057	2.01015E-001	2.18748E-006	0.00000E+000	2.01055E-001	0.00000E+000	9	...........	1467.52
	506	5.63615	2.06010E-001	2.31623E-006	0.00000E+000	2.06054E-001	0.00000E+000	9	...........	1467.52
	511	5.69173	2.11005E-001	2.46583E-006	0.00000E+000	2.11052E-001	0.00000E+000	9	...........	1467.52
	516	5.74732	2.16013E-001	2.58917E-006	0.00000E+000	2.16063E-001	0.00000E+000	9	...........	1467.52
	521	5.8029	2.21024E-001	2.67111E-006	0.00000E+000	2.21061E-001	0.00000E+000	9	...........	1467.52
	526	5.85848	2.26004E-001	2.76388E-006	0.00000E+000	2.26059E-001	0.00000E+000	9	...........	1467.52
	531	5.91407	2.31036E-001	2.89739E-006	0.00000E+000	2.31070E-001	0.00000E+000	9	...........	1467.52
	536	5.96965	2.36020E-001	3.02970E-006	0.00000E+000	2.36068E-001	0.00000E+000	9	...........	1467.52
	541	6.02523	2.41023E-001	3.12979E-006	0.00000E+000	2.41066E-001	0.00000E+000	9	...........	1467.52
	546	6.08082	2.46033E-001	3.21574E-006	0.00000E+000	2.46077E-001	0.00000E+000	9	...........	1467.52
	551	6.1364	2.51030E-001	3.32284E-006	0.00000E+000	2.51075E-001	0.00000E+000	9	...........	1467.52
	556	6.19198	2.56021E-001	3.47415E-006	0.00000E+000	2.56074E-001	0.00000E+000	9	...........	1467.52
	561	6.24757	2.61031E-001	3.59879E-006	0.00000E+000	2.61084E-001	0.00000E+000	9	...........	1467.52
	566	6.30315	2.66033E-001	3.69572E-006	0.00000E+000	2.66083E-001	0.00000E+000	9	...........	1467.52
	571	6.35873	2.71046E-001	3.79039E-006	0.00000E+000	2.71081E-001	0.00000E+000	9	...........	1467.52
	576	6.41432	2.76055E-001	3.92004E-006	0.00000E+000	2.76092E-001	0.00000E+000	9	...........	1467.52
	581	6.4699	2.81038E-001	4.06859E-006	0.00000E+000	2.81090E-001	0.00000E+000	9	...........	1467.52
	586	6.52548	2.86050E-001	4.20175E-006	0.00000E+000	2.86088E-001	0.00000E+000	9	...........	1467.52
	591	6.58107	2.91055E-001	4.30996E-006	0.00000E+000	2.91099E-001	0.00000E+000	9	...........	1467.52
	596	6.63665	2.96065E-001	4.43525E-006	0.00000E+000	2.96097E-001	0.00000E+000	9	...........	1467.52
	601	6.69223	2.99097E-001	1.89680E-006	0.00000E+000	2.99096E-001	0.00000E+000	9	...........	1467.52
	606	6.74782	2.94082E-001	1.09461E-006	0.00000E+000	2.94098E-001	0.00000E+000	9	...........	1467.52
	611	6.8034	2.89104E-001	6.49219E-007	0.00000E+000	2.89100E-001	0.00000E+000	9	...........	1467.52
	616	6.85898	2.84092E-001	3.11277E-007	0.00000E+000	2.84089E-001	0.00000E+000	9	...........	1467.52
	621	6.91457	2.79075E-001	6.56504E-008	0.00000E+000	2.79091E-001	0.00000E+000	9	...........	1467.52
	626	6.97015	2.74089E-001	-1.22040E-007	0.00000E+000	2.74092E-001	0.00000E+000	9	...........	1467.52
	631	7.02573	2.69094E-001	-3.05119E-007	0.00000E+000	2.69082E-001	0.00000E+000	9	...........	1467.52
	636	7.08132	2.64075E-001	-4.95165E-007	0.00000E+000	2.64083E-001	0.00000E+000	9	...........	1467.52
	641	7.1369	2.59086E-001	-6.72682E-007	0.00000E+000	2.59085E-001	0.00000E+000	9	...........	1467.52
	646	7.19248	2.54053E-001	-8.14063E-007	0.00000E+000	2.54074E-001	0.00000E+000	9	...........	1467.52
	651	7.24807	2.49073E-001	-9.33995E-007	0.00000E+000	2.49076E-001	0.00000E+000	9	...........	1467.52
	656	7.30365	2.44098E-001	-1.09427E-006	0.00000E+000	2.44078E-001	0.00000E+000	9	...........	1467.52
	661	7.35923	2.39060E-001	-1.26888E-006	0.00000E+000	2.39067E-001	0.00000E+000	9	...........	1467.52
	666	7.41482	2.34077E-001	-1.41833E-006	0.00000E+000	2.34069E-001	0.00000E+000	9	...........	1467.52
	671	7.4704	2.29067E-001	-1.52127E-006	0.00000E+000	2.29071E-001	0.00000E+000	9	...........	1467.52
	676	7.52598	2.24058E-001	-1.62677E-006	0.00000E+000	2.24060E-001	0.00000E+000	9	...........	1467.52
	681	7.58157	2.19051E-001	-1.77156E-006	0.00000E+000	2.19062E-001	0.00000E+000	9	...........	1467.52
	686	7.63715	2.14020E-001	-1.93595E-006	0.00000E+000	2.14051E-001	0.00000E+000	9	...........	1467.52
	691	7.69273	2.09043E-001	-2.03558E-006	0.00000E+000	2.09053E-001	0.00000E+000	9	...........	1467.52
	696	7.74832	2.04047E-001	-2.13967E-006	0.00000E+000	2.04054E-001	0.00000E+000	9	...........	1467.43
	701	7.8039	1.99043E-001	-2.26777E-006	0.00000E+000	1.99043E-001	0.00000E+000	9	...........	1467.43
	706	7.85948	1.94045E-001	-2.41161E-006	0.00000E+000	1.94045E-001	0.00000E+000	9	...........	1467.43
	711	7.91507	1.89035E-001	-2.55595E-006	0.00000E+000	1.89047E-001	0.00000E+000	9	...........	1467.43
	716	7.97065	1.84036E-001	-2.67072E-006	0.00000E+000	1.84036E-001	0.00000E+000	9	...........	1467.43
	721	8.02623	1.79031E-001	-2.76985E-006	0.00000E+000	1.79038E-001	0.00000E+000	9	...........	1467.43
	726	8.08182	1.74055E-001	-2.92071E-006	0.00000E+000	1.74040E-001	0.00000E+000	9	...........	1467.43
	731	8.1374	1.69039E-001	-3.10158E-006	0.00000E+000	1.69029E-001	0.00000E+000	9	...........	1467.43
	736	8.19298	1.64024E-001	-3.20968E-006	0.00000E+000	1.64031E-001	0.00000E+000	9	...........	1467.43
[...]
	796	8.85998	1.04017E-001	-4.94360E-006	0.00000E+000	1.04002E-001	0.00000E+000	9	...........	1467.52
	800	8.90445	1.00009E-001	-5.03662E-006	0.00000E+000	1.00003E-001	0.00000E+000	9	...........	1467.52
CURVE3	TABLE
	Pt	T	Vf	Im	Vu	Sig	Ach	IERange	Over	Temp
	#	s	V vs. Ref.	A	V	V	V	#	bits	deg C
	801	8.91557	1.00969E-001	-2.41286E-006	0.00000E+000	1.01003E-001	0.00000E+000	9	...........	1467.52
	806	8.97115	1.05963E-001	-1.59585E-006	0.00000E+000	1.06001E-001	0.00000E+000	9	...........	1467.52
	811	9.02673	1.10966E-001	-1.10886E-006	0.00000E+000	1.11012E-001	0.00000E+000	9	...........	1467.52
	816	9.08232	1.15987E-001	-7.82890E-007	0.00000E+000	1.16010E-001	0.00000E+000	9	...........	1467.52
	821	9.1379	1.20972E-001	-5.08046E-007	0.00000E+000	1.21008E-001	0.00000E+000	9	...........	1467.52
	826	9.19348	1.25972E-001	-2.35055E-007	0.00000E+000	1.26019E-001	0.00000E+000	9	...........	1467.52
	831	9.24907	1.30994E-001	2.23488E-008	0.00000E+000	1.31017E-001	0.00000E+000	9	...........	1467.52
	836	9.30465	1.35984E-001	2.45372E-007	0.00000E+000	1.36015E-001	0.00000E+000	9	...........	1467.52
	841	9.36023	1.41005E-001	4.32611E-007	0.00000E+000	1.41026E-001	0.00000E+000	9	...........	1467.52
	846	9.41582	1.45985E-001	5.79155E-007	0.00000E+000	1.46024E-001	0.00000E+000	9	...........	1467.52
	851	9.4714	1.50980E-001	7.79425E-007	0.00000E+000	1.51023E-001	0.00000E+000	9	...........	1467.52
	856	9.527	1.56003E-001	9.78041E-007	0.00000E+000	1.56034E-001	0.00000E+000	9	...........	1467.52
	861	9.5826	1.60987E-001	1.11992E-006	0.00000E+000	1.61032E-001	0.00000E+000	9	...........	1467.52
	866	9.6382	1.65978E-001	1.24943E-006	0.00000E+000	1.66030E-001	0.00000E+000	9	...........	1467.52
	871	9.6937	1.71012E-001	1.39647E-006	0.00000E+000	1.71041E-001	0.00000E+000	9	...........	1467.52
	876	9.7493	1.76013E-001	1.56848E-006	0.00000E+000	1.76039E-001	0.00000E+000	9	...........	1467.52
	881	9.8049	1.81016E-001	1.71507E-006	0.00000E+000	1.81037E-001	0.00000E+000	9	...........	1467.52
	886	9.8605	1.86016E-001	1.82332E-006	0.00000E+000	1.86048E-001	0.00000E+000	9	...........	1467.52
	891	9.9161	1.91005E-001	1.93098E-006	0.00000E+000	1.91046E-001	0.00000E+000	9	...........	1467.52
	896	9.9717	1.96014E-001	2.06860E-006	0.00000E+000	1.96045E-001	0.00000E+000	9	...........	1467.52
	901	10.0272	2.01018E-001	2.21610E-006	0.00000E+000	2.01055E-001	0.00000E+000	9	...........	1467.52
	906	10.0828	2.06012E-001	2.33066E-006	0.00000E+000	2.06054E-001	0.00000E+000	9	...........	1467.52
	911	10.1384	2.11001E-001	2.42920E-006	0.00000E+000	2.11052E-001	0.00000E+000	9	...........	1467.52
	916	10.194	2.16011E-001	2.53760E-006	0.00000E+000	2.16063E-001	0.00000E+000	9	...........	1467.52
	921	10.2496	2.21025E-001	2.67768E-006	0.00000E+000	2.21061E-001	0.00000E+000	9	...........	1467.52
	926	10.3052	2.26013E-001	2.80302E-006	0.00000E+000	2.26059E-001	0.00000E+000	9	...........	1467.52
	931	10.3607	2.31033E-001	2.88577E-006	0.00000E+000	2.31070E-001	0.00000E+000	9	...........	1467.52
	936	10.4163	2.36024E-001	2.98164E-006	0.00000E+000	2.36068E-001	0.00000E+000	9	...........	1467.52
	941	10.4719	2.41024E-001	3.10022E-006	0.00000E+000	2.41066E-001	0.00000E+000	9	...........	1467.52
	946	10.5275	2.46022E-001	3.24070E-006	0.00000E+000	2.46077E-001	0.00000E+000	9	...........	1467.52
	951	10.5831	2.51032E-001	3.34765E-006	0.00000E+000	2.51075E-001	0.00000E+000	9	...........	1467.52
	956	10.6386	2.56025E-001	3.42418E-006	0.00000E+000	2.56074E-001	0.00000E+000	9	...........	1467.52
	961	10.6942	2.61030E-001	3.54396E-006	0.00000E+000	2.61084E-001	0.00000E+000	9	...........	1467.52
	966	10.7498	2.66034E-001	3.68389E-006	0.00000E+000	2.66083E-001	0.00000E+000	9	...........	1467.52
	971	10.8054	2.71049E-001	3.81670E-006	0.00000E+000	2.71081E-001	0.00000E+000	9	...........	1467.52
	976	10.861	2.76048E-001	3.91643E-006	0.00000E+000	2.76092E-001	0.00000E+000	9	...........	1467.52
	981	10.9166	2.81032E-001	4.02198E-006	0.00000E+000	2.81090E-001	0.00000E+000	9	...........	1467.52
	986	10.9721	2.86045E-001	4.16537E-006	0.00000E+000	2.86088E-001	0.00000E+000	9	...........	1467.52
	991	11.0277	2.91046E-001	4.32645E-006	0.00000E+000	2.91099E-001	0.00000E+000	9	...........	1467.52
	996	11.0833	2.96061E-001	4.45420E-006	0.00000E+000	2.96097E-001	0.00000E+000	9	...........	1467.52
	1001	11.1389	2.99095E-001	1.86176E-006	0.00000E+000	2.99096E-001	0.00000E+000	9	...........	1467.52
	1006	11.1945	2.94099E-001	1.03051E-006	0.00000E+000	2.94098E-001	0.00000E+000	9	...........	1467.52
	1011	11.2501	2.89098E-001	6.28872E-007	0.00000E+000	2.89100E-001	0.00000E+000	9	...........	1467.52
	1016	11.3056	2.84092E-001	3.30672E-007	0.00000E+000	2.84089E-001	0.00000E+000	9	...........	1467.52
	1021	11.3612	2.79075E-001	6.29440E-008	0.00000E+000	2.79091E-001	0.00000E+000	9	...........	1467.52
	1026	11.4168	2.74070E-001	-1.89749E-007	0.00000E+000	2.74092E-001	0.00000E+000	9	...........	1467.52
	1031	11.4724	2.69085E-001	-3.73781E-007	0.00000E+000	2.69082E-001	0.00000E+000	9	...........	1467.52
	1036	11.528	2.64064E-001	-5.16064E-007	0.00000E+000	2.64083E-001	0.00000E+000	9	...........	1467.52
	1041	11.5836	2.59088E-001	-6.83557E-007	0.00000E+000	2.59085E-001	0.00000E+000	9	...........	1467.52
	1046	11.6391	2.54047E-001	-8.67439E-007	0.00000E+000	2.54074E-001	0.00000E+000	9	...........	1467.52
	1051	11.6947	2.49071E-001	-1.01914E-006	0.00000E+000	2.49076E-001	0.00000E+000	9	...........	1467.52
	1056	11.7503	2.44089E-001	-1.13812E-006	0.00000E+000	2.44078E-001	0.00000E+000	9	...........	1467.61
	1061	11.8059	2.39060E-001	-1.25725E-006	0.00000E+000	2.39067E-001	0.00000E+000	9	...........	1467.61
	1066	11.8615	2.34077E-001	-1.41217E-006	0.00000E+000	2.34069E-001	0.00000E+000	9	...........	1467.61
	1071	11.9171	2.29057E-001	-1.55736E-006	0.00000E+000	2.29071E-001	0.00000E+000	9	...........	1467.61
	1076	11.9727	2.24059E-001	-1.66822E-006	0.00000E+000	2.24060E-001	0.00000E+000	9	...........	1467.61
	1081	12.0282	2.19051E-001	-1.76835E-006	0.00000E+000	2.19062E-001	0.00000E+000	9	...........	1467.61
	1086	12.0838	2.14017E-001	-1.90417E-006	0.00000E+000	2.14051E-001	0.00000E+000	9	...........	1467.61
	1091	12.1394	2.09049E-001	-2.04209E-006	0.00000E+000	2.09053E-001	0.00000E+000	9	...........	1467.61
	1096	12.195	2.04046E-001	-2.18252E-006	0.00000E+000	2.04054E-001	0.00000E+000	9	...........	1467.61
	1101	12.2506	1.99057E-001	-2.29744E-006	0.00000E+000	1.99043E-001	0.00000E+000	9	...........	1467.61
	1106	12.3062	1.94058E-001	-2.38575E-006	0.00000E+000	1.94045E-001	0.00000E+000	9	...........	1467.61
	1111	12.3617	1.89042E-001	-2.53861E-006	0.00000E+000	1.89047E-001	0.00000E+000	9	...........	1467.61
	1116	12.4173	1.84042E-001	-2.70500E-006	0.00000E+000	1.84036E-001	0.00000E+000	9	...........	1467.61
	1121	12.4729	1.79022E-001	-2.81671E-006	0.00000E+000	1.79038E-001	0.00000E+000	9	...........	1467.61
	1126	12.5285	1.74038E-001	-2.93068E-006	0.00000E+000	1.74040E-001	0.00000E+000	9	...........	1467.61
	1131	12.5841	1.69037E-001	-3.07261E-006	0.00000E+000	1.69029E-001	0.00000E+000	9	...........	1467.61
	1136	12.6397	1.64028E-001	-3.22372E-006	0.00000E+000	1.64031E-001	0.00000E+000	9	...........	1467.61
	1141	12.6952	1.59028E-001	-3.37668E-006	0.00000E+000	1.59032E-001	0.00000E+000	9	...........	1467.61
	1146	12.7508	1.54025E-001	-3.49811E-006	0.00000E+000	1.54022E-001	0.00000E+000	9	...........	1467.61
	1151	12.8064	1.49031E-001	-3.60762E-006	0.00000E+000	1.49023E-001	0.00000E+000	9	...........	1467.61
	1156	12.862	1.44030E-001	-3.75627E-006	0.00000E+000	1.44025E-001	0.00000E+000	9	...........	1467.61
	1161	12.9176	1.39011E-001	-3.93068E-006	0.00000E+000	1.39014E-001	0.00000E+000	9	...........	1467.61
	1166	12.9732	1.34019E-001	-4.07171E-006	0.00000E+000	1.34016E-001	0.00000E+000	9	...........	1467.61
	1171	13.0287	1.29023E-001	-4.18272E-006	0.00000E+000	1.29018E-001	0.00000E+000	9	...........	1467.61
	1176	13.0843	1.24004E-001	-4.32054E-006	0.00000E+000	1.24007E-001	0.00000E+000	9	...........	1467.61
	1181	13.1399	1.19016E-001	-4.50161E-006	0.00000E+000	1.19009E-001	0.00000E+000	9	...........	1467.61
	1186	13.1955	1.13995E-001	-4.66144E-006	0.00000E+000	1.14011E-001	0.00000E+000	9	...........	1467.61
	1191	13.2511	1.09001E-001	-4.79325E-006	0.00000E+000	1.09000E-001	0.00000E+000	9	...........	1467.61
	1196	13.3067	1.04003E-001	-4.91368E-006	0.00000E+000	1.04002E-001	0.00000E+000	9	...........	1467.61
	1200	13.3511	9.99971E-002	-5.06138E-006	0.00000E+000	1.00003E-001	0.00000E+000	9	...........	1467.61
CURVE4	TABLE
	Pt	T	Vf	Im	Vu	Sig	Ach	IERange	Over	Temp
	#	s	V vs. Ref.	A	V	V	V	#	bits	deg C
	1201	13.3622	9.99783E-002	-3.73782E-006	0.00000E+000	1.00003E-001	0.00000E+000	9	...........	1467.61