File: input/ECSA_test/CV_ECSA_#1_#10.DTA
EXPLAIN
TAG	CV
TITLE	LABEL	ECSA	Test Identifier
DATE	LABEL	2/13/2024	Date
TIME	LABEL	8:50:41	Time
NOTES	NOTES	1	Notes...

PSTAT	PSTAT	IFC1010-36068	Potentiostat
VINIT	POTEN	1.00000E-001	F	Initial E (V)
VLIMIT1	POTEN	3.00000E-001	F	Scan Limit 1 (V)
VLIMIT2	POTEN	1.00000E-001	F	Scan Limit 2 (V)
VFINAL	POTEN	1.00000E-001	F	Final E (V)
SCANRATE	QUANT	9.99548E+001	A Real Number
STEPSIZE	QUANT	1.00000E+000	Step Size (mV)
CYCLES	IQUANT	3	Cycles (#)
IMODE	SELECTOR	1	I/E Range Mode
IRANGE	QUANT	3.00000E-001	Max Current (mA)
AREA	QUANT	1.00000E+000	Sample Area (cm^2)
EQDELAY	QUANT	0.00000E+000	Equil. Time (s)
IRCOMP	SELECTOR	0	IRComp
PFCOR	QUANT	5.00000E+001	PF Corr. (ohm)
SAMPLINGMODE	SELECTOR	2	Sampling Mode
EOC	QUANT	0.3246219	Open Circuit (V)
ELECTRODETYPE	SELECTOR	0	Electrode Type
STRIPPING	TOGGLE	F	Used for Stripping
SEQUENCER	TOGGLE	TRUE	Run as Sequence
PSTATMODEL	IQUANT	64	Pstat Model
PSTATSECTION	LABEL	IFC1010-36068	Pstat Section
PSTATSERIALNO	LABEL	36068	Pstat Serial Number
CTRLMODE	IQUANT	1	Control Mode
ELECTROMETER	IQUANT	0	RE=0 or CS=1
IESTAB	IQUANT	2	I/E Stability
CASPEED	IQUANT	4	Control Amp Speed
CONVENTION	IQUANT	1	Current Convention
ICHRANGE	IQUANT	2	Ich Range
ICHRANGEMODE	TOGGLE	F	Ich Auto Range
ICHOFFSETENABLE	TOGGLE	F	Ich Offset Enable
ICHOFFSET	QUANT	0	Ich Offset (V)
ICHFILTER	IQUANT	3	Ich Filter
VCHRANGE	IQUANT	2	Vch Range
VCHRANGEMODE	TOGGLE	F	Vch Auto Range
VCHOFFSETENABLE	TOGGLE	F	Vch Offset Enable
VCHOFFSET	QUANT	0	Vch Offset (V)
VCHFILTER	IQUANT	3	Vch Filter
IERANGELOWERLIMIT	IQUANT	4	I/E Range Lower Limit
IERANGEMODE	TOGGLE	F	I/E AutoRange
IERANGE	IQUANT	9	I/E Range
ACHSELECT	IQUANT	0	Ach Select
ACHRANGE	IQUANT	2	Ach Range
ACHOFFSETENABLE	TOGGLE	F	Ach Offset Enable
ACHOFFSET	QUANT	0	Ach Offset (V)
ACHFILTER	IQUANT	1	Ach Filter
SENSECABLEID	IQUANT	13	Sense Cable ID
PWRCABLEID	IQUANT	13	Power Cable ID
DCCALDATE	LABEL	8/11/2023	DC Calibration Date
ACCALDATE	LABEL	6/2/2023	AC Calibration Date
FRAMEWORKVERSION	LABEL	7.10.3	Framework Version
INSTRUMENTVERSION	LABEL	4.91	Instrument Version
COMMVERSION	LABEL	3.10	Communications Version
CPUPLDVERSION	LABEL	2.22	CPU PLD Version
CTRLPLDVERSION	LABEL	0.00	CTRL PLD Version
PSTATPLDVERSION	LABEL	0.00	PSTAT PLD Version
CURVE1	TABLE
	Pt	T	Vf	Im	Vu	Sig	Ach	IERange	Over	Temp
	#	s	V vs. Ref.	A	V	V	V	#	bits	deg C
	0	0.01	9.99883E-002	-1.06016E-005	0.00000E+000	1.00003E-001	0.00000E+000	9	...........	1467.61
	4	0.05	1.03976E-001	-8.22353E-006	0.00000E+000	1.04002E-001	0.00000E+000	9	...........	1467.61
	8	0.09	1.07959E-001	-7.50865E-006	0.00000E+000	1.08000E-001	0.00000E+000	9	...........	1467.61
	12	0.13	1.11954E-001	-6.90021E-006	0.00000E+000	1.11999E-001	0.00000E+000	9	...........	1467.61
	16	0.17	1.15971E-001	-6.35793E-006	0.00000E+000	1.15997E-001	0.00000E+000	9	...........	1467.61
	20	0.21	1.19975E-001	-5.84597E-006	0.00000E+000	1.19996E-001	0.00000E+000	9	...........	1467.61
	24	0.25	1.23966E-001	-5.37341E-006	0.00000E+000	1.23995E-001	0.00000E+000	9	...........	1467.61
	28	0.29	1.27974E-001	-4.93680E-006	0.00000E+000	1.27993E-001	0.00000E+000	9	...........	1467.61
	32	0.33	1.31967E-001	-4.51613E-006	0.00000E+000	1.31979E-001	0.00000E+000	9	...........	1467.61
	36	0.37	1.35951E-001	-4.13654E-006	0.00000E+000	1.35978E-001	0.00000E+000	9	...........	1467.61
	40	0.41	1.39940E-001	-3.75912E-006	0.00000E+000	1.39977E-001	0.00000E+000	9	...........	1467.61
	44	0.45	1.43948E-001	-3.40989E-006	0.00000E+000	1.43975E-001	0.00000E+000	9	...........	1467.61
	48	0.49	1.47944E-001	-3.07762E-006	0.00000E+000	1.47974E-001	0.00000E+000	9	...........	1467.61
	52	0.53	1.51918E-001	-2.75470E-006	0.00000E+000	1.51972E-001	0.00000E+000	9	...........	1467.61
	56	0.57	1.55938E-001	-2.44784E-006	0.00000E+000	1.55971E-001	0.00000E+000	9	...........	1467.61
	60	0.61	1.59930E-001	-2.16377E-006	0.00000E+000	1.59970E-001	0.00000E+000	9	...........	1467.61
	64	0.65	1.63935E-001	-1.87947E-006	0.00000E+000	1.63968E-001	0.00000E+000	9	...........	1467.61
	68	0.69	1.67949E-001	-1.61664E-006	0.00000E+000	1.67967E-001	0.00000E+000	9	...........	1467.61
	72	0.73	1.71935E-001	-1.36656E-006	0.00000E+000	1.71965E-001	0.00000E+000	9	...........	1467.61
	76	0.77	1.75936E-001	-1.10752E-006	0.00000E+000	1.75964E-001	0.00000E+000	9	...........	1467.61
	80	0.81	1.79925E-001	-8.66585E-007	0.00000E+000	1.79963E-001	0.00000E+000	9	...........	1467.61
	84	0.85	1.83923E-001	-6.28384E-007	0.00000E+000	1.83961E-001	0.00000E+000	9	...........	1467.61
	88	0.89	1.87918E-001	-3.97260E-007	0.00000E+000	1.87960E-001	0.00000E+000	9	...........	1467.61
	92	0.93	1.91941E-001	-1.80961E-007	0.00000E+000	1.91958E-001	0.00000E+000	9	...........	1467.61
	96	0.97	1.95914E-001	3.50035E-008	0.00000E+000	1.95957E-001	0.00000E+000	9	...........	1467.61
	100	1.01	1.99921E-001	2.35586E-007	0.00000E+000	1.99956E-001	0.00000E+000	9	...........	1467.61
	104	1.05	2.03903E-001	4.51717E-007	0.00000E+000	2.03954E-001	0.00000E+000	9	...........	1467.61
	108	1.09	2.07918E-001	6.43327E-007	0.00000E+000	2.07953E-001	0.00000E+000	9	...........	1467.61
	112	1.13	2.11913E-001	8.26687E-007	0.00000E+000	2.11951E-001	0.00000E+000	9	...........	1467.61
	116	1.17	2.15891E-001	1.01902E-006	0.00000E+000	2.15950E-001	0.00000E+000	9	...........	1467.61
	120	1.21	2.19918E-001	1.19564E-006	0.00000E+000	2.19949E-001	0.00000E+000	9	...........	1467.61
	124	1.25	2.23916E-001	1.37538E-006	0.00000E+000	2.23947E-001	0.00000E+000	9	...........	1467.61
	128	1.29	2.27900E-001	1.53522E-006	0.00000E+000	2.27946E-001	0.00000E+000	9	...........	1467.61
	132	1.33	2.31910E-001	1.69523E-006	0.00000E+000	2.31945E-001	0.00000E+000	9	...........	1467.61
	136	1.37	2.35887E-001	1.85758E-006	0.00000E+000	2.35943E-001	0.00000E+000	9	...........	1467.61
	140	1.41	2.39891E-001	2.00666E-006	0.00000E+000	2.39942E-001	0.00000E+000	9	...........	1467.61
	144	1.45	2.43900E-001	2.14388E-006	0.00000E+000	2.43940E-001	0.00000E+000	9	...........	1467.61
	148	1.49	2.47889E-001	2.29045E-006	0.00000E+000	2.47939E-001	0.00000E+000	9	...........	1467.61
	152	1.53	2.51890E-001	2.42588E-006	0.00000E+000	2.51938E-001	0.00000E+000	9	...........	1467.61
	156	1.57	2.55879E-001	2.56516E-006	0.00000E+000	2.55924E-001	0.00000E+000	9	...........	1467.61
	160	1.61	2.59881E-001	2.70382E-006	0.00000E+000	2.59922E-001	0.00000E+000	9	...........	1467.61
	164	1.65	2.63875E-001	2.83463E-006	0.00000E+000	2.63921E-001	0.00000E+000	9	...........	1467.61
	168	1.69	2.67860E-001	2.98042E-006	0.00000E+000	2.67919E-001	0.00000E+000	9	...........	1467.61
	172	1.73	2.71884E-001	3.11429E-006	0.00000E+000	2.71918E-001	0.00000E+000	9	...........	1467.61
	176	1.77	2.75881E-001	3.24014E-006	0.00000E+000	2.75917E-001	0.00000E+000	9	...........	1467.61
	180	1.81	2.79862E-001	3.37440E-006	0.00000E+000	2.79915E-001	0.00000E+000	9	...........	1467.61
	184	1.85	2.83888E-001	3.50571E-006	0.00000E+000	2.83914E-001	0.00000E+000	9	...........	1467.61
	188	1.89	2.87868E-001	3.64286E-006	0.00000E+000	2.87912E-001	0.00000E+000	9	...........	1467.61
	192	1.93	2.91864E-001	3.78398E-006	0.00000E+000	2.91911E-001	0.00000E+000	9	...........	1467.61
	196	1.97	2.95881E-001	3.91356E-006	0.00000E+000	2.95910E-001	0.00000E+000	9	...........	1467.61
	200	2.01	2.99868E-001	4.06275E-006	0.00000E+000	2.99908E-001	0.00000E+000	9	...........	1467.61
	204	2.05	2.95932E-001	7.57467E-007	0.00000E+000	2.95910E-001	0.00000E+000	9	...........	1467.61
	208	2.09	2.91910E-001	2.76884E-007	0.00000E+000	2.91911E-001	0.00000E+000	9	...........	1467.61
	212	2.13	2.87927E-001	-7.08330E-008	0.00000E+000	2.87912E-001	0.00000E+000	9	...........	1467.61
	216	2.17	2.83934E-001	-3.64545E-007	0.00000E+000	2.83914E-001	0.00000E+000	9	...........	1467.61
	220	2.21	2.79912E-001	-6.25764E-007	0.00000E+000	2.79915E-001	0.00000E+000	9	...........	1467.61
	224	2.25	2.75913E-001	-8.58337E-007	0.00000E+000	2.75917E-001	0.00000E+000	9	...........	1467.61
	228	2.29	2.71916E-001	-1.08740E-006	0.00000E+000	2.71918E-001	0.00000E+000	9	...........	1467.61
	232	2.33	2.67893E-001	-1.29289E-006	0.00000E+000	2.67919E-001	0.00000E+000	9	...........	1467.61
	236	2.37	2.63919E-001	-1.49676E-006	0.00000E+000	2.63921E-001	0.00000E+000	9	...........	1467.61
	240	2.41	2.59914E-001	-1.67727E-006	0.00000E+000	2.59922E-001	0.00000E+000	9	...........	1467.61
	244	2.45	2.55912E-001	-1.85289E-006	0.00000E+000	2.55924E-001	0.00000E+000	9	...........	1467.61
	248	2.49	2.51928E-001	-2.02337E-006	0.00000E+000	2.51938E-001	0.00000E+000	9	...........	1467.61
	252	2.53	2.47932E-001	-2.21649E-006	0.00000E+000	2.47939E-001	0.00000E+000	9	...........	1467.61
	256	2.57	2.43952E-001	-2.38881E-006	0.00000E+000	2.43940E-001	0.00000E+000	9	...........	1467.61
	260	2.61	2.39941E-001	-2.57658E-006	0.00000E+000	2.39942E-001	0.00000E+000	9	...........	1467.61
	264	2.65	2.35937E-001	-2.75152E-006	0.00000E+000	2.35943E-001	0.00000E+000	9	...........	1467.61
	268	2.69	2.31959E-001	-2.92898E-006	0.00000E+000	2.31945E-001	0.00000E+000	9	...........	1467.61
	272	2.73	2.27952E-001	-3.11278E-006	0.00000E+000	2.27946E-001	0.00000E+000	9	...........	1467.43
	276	2.77	2.23965E-001	-3.29910E-006	0.00000E+000	2.23947E-001	0.00000E+000	9	...........	1467.43
	280	2.81	2.19955E-001	-3.49266E-006	0.00000E+000	2.19949E-001	0.00000E+000	9	...........	1467.43
	284	2.85	2.15944E-001	-3.68521E-006	0.00000E+000	2.15950E-001	0.00000E+000	9	...........	1467.43
	288	2.89	2.11953E-001	-3.88028E-006	0.00000E+000	2.11951E-001	0.00000E+000	9	...........	1467.43
	292	2.93	2.07953E-001	-4.09897E-006	0.00000E+000	2.07953E-001	0.00000E+000	9	...........	1467.43
	296	2.97	2.03945E-001	-4.31143E-006	0.00000E+000	2.03954E-001	0.00000E+000	9	...........	1467.43
	300	3.01	1.99959E-001	-4.54261E-006	0.00000E+000	1.99956E-001	0.00000E+000	9	...........	1467.43
	304	3.05	1.95974E-001	-4.77145E-006	0.00000E+000	1.95957E-001	0.00000E+000	9	...........	1467.43
	308	3.09	1.91992E-001	-5.00586E-006	0.00000E+000	1.91958E-001	0.00000E+000	9	...........	1467.43
	312	3.13	1.87973E-001	-5.25554E-006	0.00000E+000	1.87960E-001	0.00000E+000	9	...........	1467.43
	316	3.17	1.83976E-001	-5.49619E-006	0.00000E+000	1.83961E-001	0.00000E+000	9	...........	1467.43
	320	3.21	1.79975E-001	-5.73813E-006	0.00000E+000	1.79963E-001	0.00000E+000	9	...........	1467.43
	324	3.25	1.75989E-001	-6.00280E-006	0.00000E+000	1.75964E-001	0.00000E+000	9	...........	1467.43
	328	3.29	1.71974E-001	-6.26124E-006	0.00000E+000	1.71965E-001	0.00000E+000	9	...........	1467.43
	332	3.33	1.67986E-001	-6.53628E-006	0.00000E+000	1.67967E-001	0.00000E+000	9	...........	1467.43
	336	3.37	1.63978E-001	-6.81054E-006	0.00000E+000	1.63968E-001	0.00000E+000	9	...........	1467.43
	340	3.41	1.59984E-001	-7.08597E-006	0.00000E+000	1.59970E-001	0.00000E+000	9	...........	1467.43
	344	3.45	1.55993E-001	-7.37784E-006	0.00000E+000	1.55971E-001	0.00000E+000	9	...........	1467.43
	348	3.49	1.51972E-001	-7.66007E-006	0.00000E+000	1.51972E-001	0.00000E+000	9	...........	1467.43
	352	3.53	1.47983E-001	-7.94894E-006	0.00000E+000	1.47974E-001	0.00000E+000	9	...........	1467.43
	356	3.57	1.43987E-001	-8.25586E-006	0.00000E+000	1.43975E-001	0.00000E+000	9	...........	1467.43
	360	3.61	1.39984E-001	-8.56255E-006	0.00000E+000	1.39977E-001	0.00000E+000	9	...........	1467.43
	364	3.65	1.35980E-001	-8.87182E-006	0.00000E+000	1.35978E-001	0.00000E+000	9	...........	1467.43
	368	3.69	1.31996E-001	-9.20476E-006	0.00000E+000	1.31979E-001	0.00000E+000	9	...........	1467.43
	372	3.73	1.28007E-001	-9.53643E-006	0.00000E+000	1.27993E-001	0.00000E+000	9	...........	1467.52
	376	3.77	1.23990E-001	-9.88420E-006	0.00000E+000	1.23995E-001	0.00000E+000	9	...........	1467.52
	380	3.81	1.20011E-001	-1.02380E-005	0.00000E+000	1.19996E-001	0.00000E+000	9	...........	1467.52
	384	3.85	1.16017E-001	-1.06145E-005	0.00000E+000	1.15997E-001	0.00000E+000	9	...........	1467.52
	388	3.89	1.11999E-001	-1.09872E-005	0.00000E+000	1.11999E-001	0.00000E+000	9	...........	1467.52
	392	3.93	1.08021E-001	-1.13811E-005	0.00000E+000	1.08000E-001	0.00000E+000	9	...........	1467.52
	396	3.97	1.04029E-001	-1.17809E-005	0.00000E+000	1.04002E-001	0.00000E+000	9	...........	1467.52
	400	4.01	1.00012E-001	-1.21980E-005	0.00000E+000	1.00003E-001	0.00000E+000	9	...........	1467.52
CURVE2	TABLE
	Pt	T	Vf	Im	Vu	Sig	Ach	IERange	Over	Temp
	#	s	V vs. Ref.	A	V	V	V	#	bits	deg C
	401	4.02	1.00964E-001	-9.38082E-006	0.00000E+000	1.01003E-001	0.00000E+000	9	...........	1467.52
	405	4.06	1.04961E-001	-8.28311E-006	0.00000E+000	1.05001E-001	0.00000E+000	9	...........	1467.52
	409	4.1	1.08963E-001	-7.57447E-006	0.00000E+000	1.09000E-001	0.00000E+000	9	...........	1467.52
	413	4.14	1.12949E-001	-6.94820E-006	0.00000E+000	1.12999E-001	0.00000E+000	9	...........	1467.52
	417	4.18	1.16971E-001	-6.39260E-006	0.00000E+000	1.16997E-001	0.00000E+000	9	...........	1467.52
	421	4.22	1.20968E-001	-5.87144E-006	0.00000E+000	1.20996E-001	0.00000E+000	9	...........	1467.52
	425	4.26	1.24970E-001	-5.39760E-006	0.00000E+000	1.24994E-001	0.00000E+000	9	...........	1467.52
	429	4.3	1.28975E-001	-4.94483E-006	0.00000E+000	1.28993E-001	0.00000E+000	9	...........	1467.52
	433	4.34	1.32957E-001	-4.51959E-006	0.00000E+000	1.32979E-001	0.00000E+000	9	...........	1467.52
	437	4.38	1.36931E-001	-4.12528E-006	0.00000E+000	1.36978E-001	0.00000E+000	9	...........	1467.52
	441	4.42	1.40959E-001	-3.75014E-006	0.00000E+000	1.40976E-001	0.00000E+000	9	...........	1467.52
	445	4.46	1.44942E-001	-3.40025E-006	0.00000E+000	1.44975E-001	0.00000E+000	9	...........	1467.52
	449	4.5	1.48945E-001	-3.06524E-006	0.00000E+000	1.48973E-001	0.00000E+000	9	...........	1467.52
	453	4.54	1.52925E-001	-2.73971E-006	0.00000E+000	1.52972E-001	0.00000E+000	9	...........	1467.52
	457	4.58	1.56944E-001	-2.44527E-006	0.00000E+000	1.56971E-001	0.00000E+000	9	...........	1467.52
	461	4.62	1.60928E-001	-2.15775E-006	0.00000E+000	1.60969E-001	0.00000E+000	9	...........	1467.52
	465	4.66	1.64921E-001	-1.86576E-006	0.00000E+000	1.64968E-001	0.00000E+000	9	...........	1467.52
	469	4.7	1.68940E-001	-1.60410E-006	0.00000E+000	1.68966E-001	0.00000E+000	9	...........	1467.70
	473	4.74	1.72935E-001	-1.33608E-006	0.00000E+000	1.72965E-001	0.00000E+000	9	...........	1467.70
	477	4.78	1.76925E-001	-1.09080E-006	0.00000E+000	1.76964E-001	0.00000E+000	9	...........	1467.70
	481	4.82	1.80942E-001	-8.47915E-007	0.00000E+000	1.80962E-001	0.00000E+000	9	...........	1467.70
	485	4.86	1.84944E-001	-6.07595E-007	0.00000E+000	1.84961E-001	0.00000E+000	9	...........	1467.70
	489	4.9	1.88917E-001	-3.81822E-007	0.00000E+000	1.88960E-001	0.00000E+000	9	...........	1467.70
	493	4.94	1.92945E-001	-1.63628E-007	0.00000E+000	1.92958E-001	0.00000E+000	9	...........	1467.70
	497	4.98	1.96930E-001	5.84670E-008	0.00000E+000	1.96957E-001	0.00000E+000	9	...........	1467.70
	501	5.02	2.00905E-001	2.64400E-007	0.00000E+000	2.00955E-001	0.00000E+000	9	...........	1467.70
	505	5.06	2.04934E-001	4.70666E-007	0.00000E+000	2.04954E-001	0.00000E+000	9	...........	1467.70
	509	5.1	2.08912E-001	6.61050E-007	0.00000E+000	2.08953E-001	0.00000E+000	9	...........	1467.70
	513	5.14	2.12906E-001	8.46695E-007	0.00000E+000	2.12951E-001	0.00000E+000	9	...........	1467.70
	517	5.18	2.16889E-001	1.02916E-006	0.00000E+000	2.16950E-001	0.00000E+000	9	...........	1467.70
	521	5.22	2.20917E-001	1.22066E-006	0.00000E+000	2.20948E-001	0.00000E+000	9	...........	1467.70
	525	5.26	2.24901E-001	1.38853E-006	0.00000E+000	2.24947E-001	0.00000E+000	9	...........	1467.70
	529	5.3	2.28911E-001	1.55918E-006	0.00000E+000	2.28946E-001	0.00000E+000	9	...........	1467.70
	533	5.34	2.32902E-001	1.71323E-006	0.00000E+000	2.32944E-001	0.00000E+000	9	...........	1467.70
	537	5.38	2.36915E-001	1.86772E-006	0.00000E+000	2.36943E-001	0.00000E+000	9	...........	1467.70
	541	5.42	2.40885E-001	2.01786E-006	0.00000E+000	2.40941E-001	0.00000E+000	9	...........	1467.70
	545	5.46	2.44907E-001	2.16812E-006	0.00000E+000	2.44940E-001	0.00000E+000	9	...........	1467.70
	549	5.5	2.48898E-001	2.30500E-006	0.00000E+000	2.48939E-001	0.00000E+000	9	...........	1467.70
	553	5.54	2.52861E-001	2.43452E-006	0.00000E+000	2.52925E-001	0.00000E+000	9	...........	1467.70
	557	5.58	2.56868E-001	2.58177E-006	0.00000E+000	2.56923E-001	0.00000E+000	9	...........	1467.70
	561	5.62	2.60866E-001	2.72416E-006	0.00000E+000	2.60922E-001	0.00000E+000	9	...........	1467.70
	565	5.66	2.64863E-001	2.85296E-006	0.00000E+000	2.64921E-001	0.00000E+000	9	...........	1467.70
	569	5.7	2.68888E-001	2.97697E-006	0.00000E+000	2.68919E-001	0.00000E+000	9	...........	1467.43
	573	5.74	2.72874E-001	3.10482E-006	0.00000E+000	2.72918E-001	0.00000E+000	9	...........	1467.43
	577	5.78	2.76872E-001	3.23574E-006	0.00000E+000	2.76916E-001	0.00000E+000	9	...........	1467.43
	581	5.82	2.80857E-001	3.36242E-006	0.00000E+000	2.80915E-001	0.00000E+000	9	...........	1467.43
	585	5.86	2.84883E-001	3.51234E-006	0.00000E+000	2.84914E-001	0.00000E+000	9	...........	1467.43
	589	5.9	2.88888E-001	3.65206E-006	0.00000E+000	2.88912E-001	0.00000E+000	9	...........	1467.43
	593	5.94	2.92873E-001	3.80142E-006	0.00000E+000	2.92911E-001	0.00000E+000	9	...........	1467.43
	597	5.98	2.96877E-001	3.94973E-006	0.00000E+000	2.96909E-001	0.00000E+000	9	...........	1467.43
	601	6.02	2.98911E-001	1.42576E-006	0.00000E+000	2.98909E-001	0.00000E+000	9	...........	1467.43
	605	6.06	2.94933E-001	6.15906E-007	0.00000E+000	2.94910E-001	0.00000E+000	9	...........	1467.43
[...]
	865	8.66	1.64927E-001	-1.87702E-006	0.00000E+000	1.64968E-001	0.00000E+000	9	...........	1467.61
	869	8.7	1.68944E-001	-1.61714E-006	0.00000E+000	1.68966E-001	0.00000E+000	9	...........	1467.43
	873	8.74	1.72928E-001	-1.35709E-006	0.00000E+000	1.72965E-001	0.00000E+000	9	...........	1467.43
	877	8.78	1.76929E-001	-1.09732E-006	0.00000E+000	1.76964E-001	0.00000E+000	9	...........	1467.43
	881	8.82	1.80936E-001	-8.56331E-007	0.00000E+000	1.80962E-001	0.00000E+000	9	...........	1467.43
	885	8.86	1.84935E-001	-6.25541E-007	0.00000E+000	1.84961E-001	0.00000E+000	9	...........	1467.43
	889	8.9	1.88927E-001	-3.95476E-007	0.00000E+000	1.88960E-001	0.00000E+000	9	...........	1467.43
	893	8.94	1.92943E-001	-1.70762E-007	0.00000E+000	1.92958E-001	0.00000E+000	9	...........	1467.43
	897	8.98	1.96923E-001	4.20815E-008	0.00000E+000	1.96957E-001	0.00000E+000	9	...........	1467.43
	901	9.02	2.00912E-001	2.52751E-007	0.00000E+000	2.00955E-001	0.00000E+000	9	...........	1467.43
	905	9.06	2.04929E-001	4.52107E-007	0.00000E+000	2.04954E-001	0.00000E+000	9	...........	1467.43
	909	9.1	2.08908E-001	6.49903E-007	0.00000E+000	2.08953E-001	0.00000E+000	9	...........	1467.43
	913	9.14	2.12903E-001	8.31647E-007	0.00000E+000	2.12951E-001	0.00000E+000	9	...........	1467.43
	917	9.18	2.16891E-001	1.01936E-006	0.00000E+000	2.16950E-001	0.00000E+000	9	...........	1467.43
	921	9.22	2.20913E-001	1.20333E-006	0.00000E+000	2.20948E-001	0.00000E+000	9	...........	1467.43
	925	9.26	2.24896E-001	1.36958E-006	0.00000E+000	2.24947E-001	0.00000E+000	9	...........	1467.43
	929	9.3	2.28896E-001	1.53633E-006	0.00000E+000	2.28946E-001	0.00000E+000	9	...........	1467.43
	933	9.34	2.32907E-001	1.69662E-006	0.00000E+000	2.32944E-001	0.00000E+000	9	...........	1467.43
	937	9.38	2.36905E-001	1.85306E-006	0.00000E+000	2.36943E-001	0.00000E+000	9	...........	1467.43
	941	9.42	2.40886E-001	2.00605E-006	0.00000E+000	2.40941E-001	0.00000E+000	9	...........	1467.43
	945	9.46	2.44911E-001	2.15647E-006	0.00000E+000	2.44940E-001	0.00000E+000	9	...........	1467.43
	949	9.5	2.48894E-001	2.29826E-006	0.00000E+000	2.48939E-001	0.00000E+000	9	...........	1467.43
	953	9.54	2.52878E-001	2.42287E-006	0.00000E+000	2.52925E-001	0.00000E+000	9	...........	1467.43
	957	9.58	2.56892E-001	2.57330E-006	0.00000E+000	2.56923E-001	0.00000E+000	9	...........	1467.43
	961	9.62	2.60884E-001	2.71346E-006	0.00000E+000	2.60922E-001	0.00000E+000	9	...........	1467.43
	965	9.66	2.64876E-001	2.85330E-006	0.00000E+000	2.64921E-001	0.00000E+000	9	...........	1467.43
	969	9.7	2.68903E-001	2.98544E-006	0.00000E+000	2.68919E-001	0.00000E+000	9	...........	1467.52
	973	9.74	2.72884E-001	3.11552E-006	0.00000E+000	2.72918E-001	0.00000E+000	9	...........	1467.52
	977	9.78	2.76881E-001	3.25151E-006	0.00000E+000	2.76916E-001	0.00000E+000	9	...........	1467.52
	981	9.82	2.80870E-001	3.38538E-006	0.00000E+000	2.80915E-001	0.00000E+000	9	...........	1467.52
	985	9.86	2.84898E-001	3.52103E-006	0.00000E+000	2.84914E-001	0.00000E+000	9	...........	1467.52
	989	9.9	2.88887E-001	3.66031E-006	0.00000E+000	2.88912E-001	0.00000E+000	9	...........	1467.52
	993	9.94	2.92861E-001	3.79089E-006	0.00000E+000	2.92911E-001	0.00000E+000	9	...........	1467.52
	997	9.98	2.96871E-001	3.93201E-006	0.00000E+000	2.96909E-001	0.00000E+000	9	...........	1467.52
	1001	10.02	2.98913E-001	1.40369E-006	0.00000E+000	2.98909E-001	0.00000E+000	9	...........	1467.52
	1005	10.06	2.94933E-001	6.07100E-007	0.00000E+000	2.94910E-001	0.00000E+000	9	...........	1467.52
	1009	10.1	2.90902E-001	1.63467E-007	0.00000E+000	2.90911E-001	0.00000E+000	9	...........	1467.52
	1013	10.14	2.86918E-001	-1.58724E-007	0.00000E+000	2.86913E-001	0.00000E+000	9	...........	1467.52
	1017	10.18	2.82912E-001	-4.43574E-007	0.00000E+000	2.82914E-001	0.00000E+000	9	...........	1467.52
	1021	10.22	2.78906E-001	-6.96099E-007	0.00000E+000	2.78916E-001	0.00000E+000	9	...........	1467.52
	1025	10.26	2.74905E-001	-9.21872E-007	0.00000E+000	2.74917E-001	0.00000E+000	9	...........	1467.52
	1029	10.3	2.70934E-001	-1.14464E-006	0.00000E+000	2.70918E-001	0.00000E+000	9	...........	1467.52
	1033	10.34	2.66909E-001	-1.35570E-006	0.00000E+000	2.66920E-001	0.00000E+000	9	...........	1467.52
	1037	10.38	2.62926E-001	-1.54106E-006	0.00000E+000	2.62921E-001	0.00000E+000	9	...........	1467.52
	1041	10.42	2.58920E-001	-1.72487E-006	0.00000E+000	2.58923E-001	0.00000E+000	9	...........	1467.52
	1045	10.46	2.54898E-001	-1.90907E-006	0.00000E+000	2.54924E-001	0.00000E+000	9	...........	1467.52
	1049	10.5	2.50932E-001	-2.08117E-006	0.00000E+000	2.50938E-001	0.00000E+000	9	...........	1467.52
	1053	10.54	2.46937E-001	-2.25890E-006	0.00000E+000	2.46939E-001	0.00000E+000	9	...........	1467.52
	1057	10.58	2.42930E-001	-2.42900E-006	0.00000E+000	2.42941E-001	0.00000E+000	9	...........	1467.52
	1061	10.62	2.38937E-001	-2.62167E-006	0.00000E+000	2.38942E-001	0.00000E+000	9	...........	1467.52
	1065	10.66	2.34949E-001	-2.79784E-006	0.00000E+000	2.34943E-001	0.00000E+000	9	...........	1467.52
	1069	10.7	2.30963E-001	-2.97958E-006	0.00000E+000	2.30945E-001	0.00000E+000	9	...........	1467.43
	1073	10.74	2.26945E-001	-3.16461E-006	0.00000E+000	2.26946E-001	0.00000E+000	9	...........	1467.43
	1077	10.78	2.22960E-001	-3.35149E-006	0.00000E+000	2.22948E-001	0.00000E+000	9	...........	1467.43
	1081	10.82	2.18959E-001	-3.54276E-006	0.00000E+000	2.18949E-001	0.00000E+000	9	...........	1467.43
	1085	10.86	2.14949E-001	-3.74000E-006	0.00000E+000	2.14950E-001	0.00000E+000	9	...........	1467.43
	1089	10.9	2.10957E-001	-3.93975E-006	0.00000E+000	2.10952E-001	0.00000E+000	9	...........	1467.43
	1093	10.94	2.06951E-001	-4.14746E-006	0.00000E+000	2.06953E-001	0.00000E+000	9	...........	1467.43
	1097	10.98	2.02957E-001	-4.36309E-006	0.00000E+000	2.02955E-001	0.00000E+000	9	...........	1467.43
	1101	11.02	1.98984E-001	-4.58262E-006	0.00000E+000	1.98956E-001	0.00000E+000	9	...........	1467.43
	1105	11.06	1.94978E-001	-4.81503E-006	0.00000E+000	1.94957E-001	0.00000E+000	9	...........	1467.43
	1109	11.1	1.90957E-001	-5.05518E-006	0.00000E+000	1.90959E-001	0.00000E+000	9	...........	1467.43
	1113	11.14	1.86968E-001	-5.30079E-006	0.00000E+000	1.86960E-001	0.00000E+000	9	...........	1467.43
	1117	11.18	1.82970E-001	-5.55973E-006	0.00000E+000	1.82962E-001	0.00000E+000	9	...........	1467.43
	1121	11.22	1.78951E-001	-5.80529E-006	0.00000E+000	1.78963E-001	0.00000E+000	9	...........	1467.43
	1125	11.26	1.74959E-001	-6.06205E-006	0.00000E+000	1.74964E-001	0.00000E+000	9	...........	1467.43
	1129	11.3	1.70962E-001	-6.32778E-006	0.00000E+000	1.70966E-001	0.00000E+000	9	...........	1467.43
	1133	11.34	1.66980E-001	-6.59430E-006	0.00000E+000	1.66967E-001	0.00000E+000	9	...........	1467.43
	1137	11.38	1.62970E-001	-6.87402E-006	0.00000E+000	1.62969E-001	0.00000E+000	9	...........	1467.43
	1141	11.42	1.58967E-001	-7.15675E-006	0.00000E+000	1.58970E-001	0.00000E+000	9	...........	1467.43
	1145	11.46	1.54983E-001	-7.43698E-006	0.00000E+000	1.54971E-001	0.00000E+000	9	...........	1467.43
	1149	11.5	1.50968E-001	-7.72595E-006	0.00000E+000	1.50973E-001	0.00000E+000	9	...........	1467.43
	1153	11.54	1.46988E-001	-8.01392E-006	0.00000E+000	1.46974E-001	0.00000E+000	9	...........	1467.43
	1157	11.58	1.42988E-001	-8.32641E-006	0.00000E+000	1.42976E-001	0.00000E+000	9	...........	1467.43
	1161	11.62	1.38979E-001	-8.63439E-006	0.00000E+000	1.38977E-001	0.00000E+000	9	...........	1467.43
	1165	11.66	1.34989E-001	-8.94984E-006	0.00000E+000	1.34978E-001	0.00000E+000	9	...........	1467.43
	1169	11.7	1.31005E-001	-9.28613E-006	0.00000E+000	1.30980E-001	0.00000E+000	9	...........	1467.43
	1173	11.74	1.26992E-001	-9.61529E-006	0.00000E+000	1.26994E-001	0.00000E+000	9	...........	1467.43
	1177	11.78	1.23001E-001	-9.96262E-006	0.00000E+000	1.22995E-001	0.00000E+000	9	...........	1467.43
	1181	11.82	1.19015E-001	-1.03263E-005	0.00000E+000	1.18996E-001	0.00000E+000	9	...........	1467.43
	1185	11.86	1.15006E-001	-1.06919E-005	0.00000E+000	1.14998E-001	0.00000E+000	9	...........	1467.43
	1189	11.9	1.11002E-001	-1.10802E-005	0.00000E+000	1.10999E-001	0.00000E+000	9	...........	1467.43
	1193	11.94	1.07009E-001	-1.14783E-005	0.00000E+000	1.07001E-001	0.00000E+000	9	...........	1467.43
	1197	11.98	1.03031E-001	-1.18721E-005	0.00000E+000	1.03002E-001	0.00000E+000	9	...........	1467.43
	1200	12.01	1.00017E-001	-1.21406E-005	0.00000E+000	1.00003E-001	0.00000E+000	9	...........	1467.43
CURVE4	TABLE
	Pt	T	Vf	Im	Vu	Sig	Ach	IERange	Over	Temp
	#	s	V vs. Ref.	A	V	V	V	#	bits	deg C
	1201	12.02	9.99903E-002	-1.08463E-005	0.00000E+000	1.00003E-001	0.00000E+000	9	...........	1467.43