File: input/ECSA_test/CV_ECSA_#2_#10.DTA
EXPLAIN
TAG	CV
TITLE	LABEL	ECSA	Test Identifier
DATE	LABEL	2/13/2024	Date
TIME	LABEL	12:05:55	Time
NOTES	NOTES	1	Notes...

PSTAT	PSTAT	IFC1010-36068	Potentiostat
VINIT	POTEN	1.00000E-001	F	Initial E (V)
VLIMIT1	POTEN	3.00000E-001	F	Scan Limit 1 (V)
VLIMIT2	POTEN	1.00000E-001	F	Scan Limit 2 (V)
VFINAL	POTEN	1.00000E-001	F	Final E (V)
SCANRATE	QUANT	9.99548E+001	A Real Number
STEPSIZE	QUANT	1.00000E+000	Step Size (mV)
CYCLES	IQUANT	3	Cycles (#)
IMODE	SELECTOR	1	I/E Range Mode
IRANGE	QUANT	3.00000E-001	Max Current (mA)
AREA	QUANT	1.00000E+000	Sample Area (cm^2)
EQDELAY	QUANT	0.00000E+000	Equil. Time (s)
IRCOMP	SELECTOR	0	IRComp
PFCOR	QUANT	5.00000E+001	PF Corr. (ohm)
SAMPLINGMODE	SELECTOR	2	Sampling Mode
EOC	QUANT	0.3246219	Open Circuit (V)
ELECTRODETYPE	SELECTOR	0	Electrode Type
STRIPPING	TOGGLE	F	Used for Stripping
SEQUENCER	TOGGLE	TRUE	Run as Sequence
PSTATMODEL	IQUANT	64	Pstat Model
PSTATSECTION	LABEL	IFC1010-36068	Pstat Section
PSTATSERIALNO	LABEL	36068	Pstat Serial Number
CTRLMODE	IQUANT	1	Control Mode
ELECTROMETER	IQUANT	0	RE=0 or CS=1
IESTAB	IQUANT	2	I/E Stability
CASPEED	IQUANT	4	Control Amp Speed
CONVENTION	IQUANT	1	Current Convention
ICHRANGE	IQUANT	2	Ich Range
ICHRANGEMODE	TOGGLE	F	Ich Auto Range
ICHOFFSETENABLE	TOGGLE	F	Ich Offset Enable
ICHOFFSET	QUANT	0	Ich Offset (V)
ICHFILTER	IQUANT	3	Ich Filter
VCHRANGE	IQUANT	2	Vch Range
VCHRANGEMODE	TOGGLE	F	Vch Auto Range
VCHOFFSETENABLE	TOGGLE	F	Vch Offset Enable
VCHOFFSET	QUANT	0	Vch Offset (V)
VCHFILTER	IQUANT	3	Vch Filter
IERANGELOWERLIMIT	IQUANT	4	I/E Range Lower Limit
IERANGEMODE	TOGGLE	F	I/E AutoRange
IERANGE	IQUANT	9	I/E Range
ACHSELECT	IQUANT	0	Ach Select
ACHRANGE	IQUANT	2	Ach Range
ACHOFFSETENABLE	TOGGLE	F	Ach Offset Enable
ACHOFFSET	QUANT	0	Ach Offset (V)
ACHFILTER	IQUANT	1	Ach Filter
SENSECABLEID	IQUANT	13	Sense Cable ID
PWRCABLEID	IQUANT	13	Power Cable ID
DCCALDATE	LABEL	8/11/2023	DC Calibration Date
ACCALDATE	LABEL	6/2/2023	AC Calibration Date
FRAMEWORKVERSION	LABEL	7.10.3	Framework Version
INSTRUMENTVERSION	LABEL	4.91	Instrument Version
COMMVERSION	LABEL	3.10	Communications Version
CPUPLDVERSION	LABEL	2.22	CPU PLD Version
CTRLPLDVERSION	LABEL	0.00	CTRL PLD Version
PSTATPLDVERSION	LABEL	0.00	PSTAT PLD Version
CURVE1	TABLE
	Pt	T	Vf	Im	Vu	Sig	Ach	IERange	Over	Temp
	#	s	V vs. Ref.	A	V	V	V	#	bits	deg C
	0	0.01	9.99933E-002	-3.40465E-006	0.00000E+000	1.00003E-001	0.00000E+000	9	...........	1467.61
	4	0.05	1.03985E-001	-1.42436E-006	0.00000E+000	1.04002E-001	0.00000E+000	9	...........	1467.61
	8	0.09	1.07962E-001	-1.04682E-006	0.00000E+000	1.08000E-001	0.00000E+000	9	...........	1467.61
	12	0.13	1.11957E-001	-7.51999E-007	0.00000E+000	1.11999E-001	0.00000E+000	9	...........	1467.61
	16	0.17	1.15976E-001	-4.96966E-007	0.00000E+000	1.15997E-001	0.00000E+000	9	...........	1467.61
	20	0.21	1.19963E-001	-2.70691E-007	0.00000E+000	1.19996E-001	0.00000E+000	9	...........	1467.61
	24	0.25	1.23956E-001	-6.34206E-008	0.00000E+000	1.23995E-001	0.00000E+000	9	...........	1467.61
	28	0.29	1.27964E-001	1.25569E-007	0.00000E+000	1.27993E-001	0.00000E+000	9	...........	1467.70
	32	0.33	1.31961E-001	3.05363E-007	0.00000E+000	1.31979E-001	0.00000E+000	9	...........	1467.70
	36	0.37	1.35942E-001	4.71670E-007	0.00000E+000	1.35978E-001	0.00000E+000	9	...........	1467.70
	40	0.41	1.39937E-001	6.29505E-007	0.00000E+000	1.39977E-001	0.00000E+000	9	...........	1467.70
	44	0.45	1.43948E-001	7.86727E-007	0.00000E+000	1.43975E-001	0.00000E+000	9	...........	1467.70
	48	0.49	1.47949E-001	9.31966E-007	0.00000E+000	1.47974E-001	0.00000E+000	9	...........	1467.70
	52	0.53	1.51929E-001	1.06946E-006	0.00000E+000	1.51972E-001	0.00000E+000	9	...........	1467.70
	56	0.57	1.55938E-001	1.20272E-006	0.00000E+000	1.55971E-001	0.00000E+000	9	...........	1467.70
	60	0.61	1.59928E-001	1.33458E-006	0.00000E+000	1.59970E-001	0.00000E+000	9	...........	1467.70
	64	0.65	1.63921E-001	1.46098E-006	0.00000E+000	1.63968E-001	0.00000E+000	9	...........	1467.70
	68	0.69	1.67932E-001	1.58164E-006	0.00000E+000	1.67967E-001	0.00000E+000	9	...........	1467.70
	72	0.73	1.71921E-001	1.69355E-006	0.00000E+000	1.71965E-001	0.00000E+000	9	...........	1467.70
	76	0.77	1.75934E-001	1.80424E-006	0.00000E+000	1.75964E-001	0.00000E+000	9	...........	1467.70
	80	0.81	1.79929E-001	1.91130E-006	0.00000E+000	1.79963E-001	0.00000E+000	9	...........	1467.70
	84	0.85	1.83935E-001	2.02717E-006	0.00000E+000	1.83961E-001	0.00000E+000	9	...........	1467.70
	88	0.89	1.87931E-001	2.13212E-006	0.00000E+000	1.87960E-001	0.00000E+000	9	...........	1467.70
	92	0.93	1.91947E-001	2.23015E-006	0.00000E+000	1.91958E-001	0.00000E+000	9	...........	1467.70
	96	0.97	1.95929E-001	2.33705E-006	0.00000E+000	1.95957E-001	0.00000E+000	9	...........	1467.70
	100	1.01	1.99919E-001	2.42666E-006	0.00000E+000	1.99956E-001	0.00000E+000	9	...........	1467.70
	104	1.05	2.03906E-001	2.52319E-006	0.00000E+000	2.03954E-001	0.00000E+000	9	...........	1467.70
	108	1.09	2.07919E-001	2.62764E-006	0.00000E+000	2.07953E-001	0.00000E+000	9	...........	1467.70
	112	1.13	2.11920E-001	2.72032E-006	0.00000E+000	2.11951E-001	0.00000E+000	9	...........	1467.70
	116	1.17	2.15904E-001	2.81763E-006	0.00000E+000	2.15950E-001	0.00000E+000	9	...........	1467.70
	120	1.21	2.19907E-001	2.91176E-006	0.00000E+000	2.19949E-001	0.00000E+000	9	...........	1467.70
	124	1.25	2.23926E-001	2.99642E-006	0.00000E+000	2.23947E-001	0.00000E+000	9	...........	1467.70
	128	1.29	2.27908E-001	3.08749E-006	0.00000E+000	2.27946E-001	0.00000E+000	9	...........	1467.61
	132	1.33	2.31917E-001	3.17677E-006	0.00000E+000	2.31945E-001	0.00000E+000	9	...........	1467.61
	136	1.37	2.35900E-001	3.26466E-006	0.00000E+000	2.35943E-001	0.00000E+000	9	...........	1467.61
	140	1.41	2.39904E-001	3.36080E-006	0.00000E+000	2.39942E-001	0.00000E+000	9	...........	1467.61
	144	1.45	2.43917E-001	3.43816E-006	0.00000E+000	2.43940E-001	0.00000E+000	9	...........	1467.61
	148	1.49	2.47900E-001	3.53786E-006	0.00000E+000	2.47939E-001	0.00000E+000	9	...........	1467.61
	152	1.53	2.51897E-001	3.62403E-006	0.00000E+000	2.51938E-001	0.00000E+000	9	...........	1467.61
	156	1.57	2.55874E-001	3.71454E-006	0.00000E+000	2.55924E-001	0.00000E+000	9	...........	1467.61
	160	1.61	2.59872E-001	3.80059E-006	0.00000E+000	2.59922E-001	0.00000E+000	9	...........	1467.61
	164	1.65	2.63870E-001	3.90074E-006	0.00000E+000	2.63921E-001	0.00000E+000	9	...........	1467.61
	168	1.69	2.67856E-001	4.00663E-006	0.00000E+000	2.67919E-001	0.00000E+000	9	...........	1467.61
	172	1.73	2.71883E-001	4.09357E-006	0.00000E+000	2.71918E-001	0.00000E+000	9	...........	1467.61
	176	1.77	2.75879E-001	4.19501E-006	0.00000E+000	2.75917E-001	0.00000E+000	9	...........	1467.61
	180	1.81	2.79866E-001	4.29388E-006	0.00000E+000	2.79915E-001	0.00000E+000	9	...........	1467.61
	184	1.85	2.83892E-001	4.40189E-006	0.00000E+000	2.83914E-001	0.00000E+000	9	...........	1467.61
	188	1.89	2.87894E-001	4.51319E-006	0.00000E+000	2.87912E-001	0.00000E+000	9	...........	1467.61
	192	1.93	2.91874E-001	4.62727E-006	0.00000E+000	2.91911E-001	0.00000E+000	9	...........	1467.61
	196	1.97	2.95891E-001	4.72609E-006	0.00000E+000	2.95910E-001	0.00000E+000	9	...........	1467.61
	200	2.01	2.99868E-001	4.85254E-006	0.00000E+000	2.99908E-001	0.00000E+000	9	...........	1467.61
	204	2.05	2.95923E-001	1.28013E-006	0.00000E+000	2.95910E-001	0.00000E+000	9	...........	1467.61
	208	2.09	2.91901E-001	8.16210E-007	0.00000E+000	2.91911E-001	0.00000E+000	9	...........	1467.61
	212	2.13	2.87917E-001	4.95858E-007	0.00000E+000	2.87912E-001	0.00000E+000	9	...........	1467.61
	216	2.17	2.83928E-001	2.35920E-007	0.00000E+000	2.83914E-001	0.00000E+000	9	...........	1467.61
	220	2.21	2.79909E-001	2.21850E-008	0.00000E+000	2.79915E-001	0.00000E+000	9	...........	1467.61
	224	2.25	2.75922E-001	-1.67362E-007	0.00000E+000	2.75917E-001	0.00000E+000	9	...........	1467.61
	228	2.29	2.71930E-001	-3.41583E-007	0.00000E+000	2.71918E-001	0.00000E+000	9	...........	1467.52
	232	2.33	2.67914E-001	-5.02260E-007	0.00000E+000	2.67919E-001	0.00000E+000	9	...........	1467.52
	236	2.37	2.63913E-001	-6.48447E-007	0.00000E+000	2.63921E-001	0.00000E+000	9	...........	1467.52
	240	2.41	2.59916E-001	-7.82596E-007	0.00000E+000	2.59922E-001	0.00000E+000	9	...........	1467.52
	244	2.45	2.55922E-001	-9.08552E-007	0.00000E+000	2.55924E-001	0.00000E+000	9	...........	1467.52
	248	2.49	2.51930E-001	-1.02453E-006	0.00000E+000	2.51938E-001	0.00000E+000	9	...........	1467.52
	252	2.53	2.47938E-001	-1.16331E-006	0.00000E+000	2.47939E-001	0.00000E+000	9	...........	1467.52
	256	2.57	2.43964E-001	-1.27355E-006	0.00000E+000	2.43940E-001	0.00000E+000	9	...........	1467.52
	260	2.61	2.39938E-001	-1.39660E-006	0.00000E+000	2.39942E-001	0.00000E+000	9	...........	1467.52
	264	2.65	2.35938E-001	-1.50328E-006	0.00000E+000	2.35943E-001	0.00000E+000	9	...........	1467.52
	268	2.69	2.31956E-001	-1.60800E-006	0.00000E+000	2.31945E-001	0.00000E+000	9	...........	1467.52
	272	2.73	2.27941E-001	-1.71300E-006	0.00000E+000	2.27946E-001	0.00000E+000	9	...........	1467.52
	276	2.77	2.23960E-001	-1.81722E-006	0.00000E+000	2.23947E-001	0.00000E+000	9	...........	1467.52
	280	2.81	2.19950E-001	-1.92110E-006	0.00000E+000	2.19949E-001	0.00000E+000	9	...........	1467.52
	284	2.85	2.15941E-001	-2.02209E-006	0.00000E+000	2.15950E-001	0.00000E+000	9	...........	1467.52
	288	2.89	2.11962E-001	-2.12587E-006	0.00000E+000	2.11951E-001	0.00000E+000	9	...........	1467.52
	292	2.93	2.07962E-001	-2.22697E-006	0.00000E+000	2.07953E-001	0.00000E+000	9	...........	1467.52
	296	2.97	2.03961E-001	-2.32801E-006	0.00000E+000	2.03954E-001	0.00000E+000	9	...........	1467.52
	300	3.01	1.99970E-001	-2.44014E-006	0.00000E+000	1.99956E-001	0.00000E+000	9	...........	1467.52
	304	3.05	1.95976E-001	-2.53166E-006	0.00000E+000	1.95957E-001	0.00000E+000	9	...........	1467.52
	308	3.09	1.91996E-001	-2.63705E-006	0.00000E+000	1.91958E-001	0.00000E+000	9	...........	1467.52
	312	3.13	1.87980E-001	-2.74628E-006	0.00000E+000	1.87960E-001	0.00000E+000	9	...........	1467.52
	316	3.17	1.83979E-001	-2.85084E-006	0.00000E+000	1.83961E-001	0.00000E+000	9	...........	1467.52
	320	3.21	1.79976E-001	-2.96002E-006	0.00000E+000	1.79963E-001	0.00000E+000	9	...........	1467.52
	324	3.25	1.75977E-001	-3.07277E-006	0.00000E+000	1.75964E-001	0.00000E+000	9	...........	1467.52
	328	3.29	1.71963E-001	-3.18145E-006	0.00000E+000	1.71965E-001	0.00000E+000	9	...........	1467.61
	332	3.33	1.67978E-001	-3.28600E-006	0.00000E+000	1.67967E-001	0.00000E+000	9	...........	1467.61
	336	3.37	1.63978E-001	-3.40571E-006	0.00000E+000	1.63968E-001	0.00000E+000	9	...........	1467.61
	340	3.41	1.59979E-001	-3.51857E-006	0.00000E+000	1.59970E-001	0.00000E+000	9	...........	1467.61
	344	3.45	1.55984E-001	-3.63104E-006	0.00000E+000	1.55971E-001	0.00000E+000	9	...........	1467.61
	348	3.49	1.51967E-001	-3.74936E-006	0.00000E+000	1.51972E-001	0.00000E+000	9	...........	1467.61
	352	3.53	1.47986E-001	-3.86818E-006	0.00000E+000	1.47974E-001	0.00000E+000	9	...........	1467.61
	356	3.57	1.43990E-001	-3.98584E-006	0.00000E+000	1.43975E-001	0.00000E+000	9	...........	1467.61
	360	3.61	1.39979E-001	-4.10092E-006	0.00000E+000	1.39977E-001	0.00000E+000	9	...........	1467.61
	364	3.65	1.35986E-001	-4.21807E-006	0.00000E+000	1.35978E-001	0.00000E+000	9	...........	1467.61
	368	3.69	1.32002E-001	-4.33077E-006	0.00000E+000	1.31979E-001	0.00000E+000	9	...........	1467.61
	372	3.73	1.28013E-001	-4.44624E-006	0.00000E+000	1.27993E-001	0.00000E+000	9	...........	1467.61
	376	3.77	1.23998E-001	-4.56707E-006	0.00000E+000	1.23995E-001	0.00000E+000	9	...........	1467.61
	380	3.81	1.20008E-001	-4.68266E-006	0.00000E+000	1.19996E-001	0.00000E+000	9	...........	1467.61
	384	3.85	1.16021E-001	-4.81079E-006	0.00000E+000	1.15997E-001	0.00000E+000	9	...........	1467.61
	388	3.89	1.12003E-001	-4.93307E-006	0.00000E+000	1.11999E-001	0.00000E+000	9	...........	1467.61
	392	3.93	1.08009E-001	-5.05150E-006	0.00000E+000	1.08000E-001	0.00000E+000	9	...........	1467.61
	396	3.97	1.04019E-001	-5.18710E-006	0.00000E+000	1.04002E-001	0.00000E+000	9	...........	1467.61
	400	4.01	1.00016E-001	-5.32142E-006	0.00000E+000	1.00003E-001	0.00000E+000	9	...........	1467.61
CURVE2	TABLE
	Pt	T	Vf	Im	Vu	Sig	Ach	IERange	Over	Temp
	#	s	V vs. Ref.	A	V	V	V	#	bits	deg C
	401	4.02	1.00970E-001	-2.38235E-006	0.00000E+000	1.01003E-001	0.00000E+000	9	...........	1467.61
	405	4.06	1.04966E-001	-1.65738E-006	0.00000E+000	1.05001E-001	0.00000E+000	9	...........	1467.61
	409	4.1	1.08974E-001	-1.24328E-006	0.00000E+000	1.09000E-001	0.00000E+000	9	...........	1467.61
	413	4.14	1.12961E-001	-9.09890E-007	0.00000E+000	1.12999E-001	0.00000E+000	9	...........	1467.61
	417	4.18	1.16973E-001	-6.37635E-007	0.00000E+000	1.16997E-001	0.00000E+000	9	...........	1467.61
	421	4.22	1.20974E-001	-3.85835E-007	0.00000E+000	1.20996E-001	0.00000E+000	9	...........	1467.61
	425	4.26	1.24961E-001	-1.68700E-007	0.00000E+000	1.24994E-001	0.00000E+000	9	...........	1467.61
	429	4.3	1.28971E-001	3.04334E-008	0.00000E+000	1.28993E-001	0.00000E+000	9	...........	1467.52
	433	4.34	1.32961E-001	2.20928E-007	0.00000E+000	1.32979E-001	0.00000E+000	9	...........	1467.52
	437	4.38	1.36945E-001	4.03230E-007	0.00000E+000	1.36978E-001	0.00000E+000	9	...........	1467.52
	441	4.42	1.40965E-001	5.60786E-007	0.00000E+000	1.40976E-001	0.00000E+000	9	...........	1467.52
	445	4.46	1.44945E-001	7.06472E-007	0.00000E+000	1.44975E-001	0.00000E+000	9	...........	1467.52
	449	4.5	1.48939E-001	8.55055E-007	0.00000E+000	1.48973E-001	0.00000E+000	9	...........	1467.52
	453	4.54	1.52930E-001	1.00598E-006	0.00000E+000	1.52972E-001	0.00000E+000	9	...........	1467.52
	457	4.58	1.56948E-001	1.13790E-006	0.00000E+000	1.56971E-001	0.00000E+000	9	...........	1467.52
	461	4.62	1.60932E-001	1.27444E-006	0.00000E+000	1.60969E-001	0.00000E+000	9	...........	1467.52
	465	4.66	1.64917E-001	1.40865E-006	0.00000E+000	1.64968E-001	0.00000E+000	9	...........	1467.52
	469	4.7	1.68937E-001	1.53689E-006	0.00000E+000	1.68966E-001	0.00000E+000	9	...........	1467.52
	473	4.74	1.72931E-001	1.64501E-006	0.00000E+000	1.72965E-001	0.00000E+000	9	...........	1467.52
	477	4.78	1.76918E-001	1.76417E-006	0.00000E+000	1.76964E-001	0.00000E+000	9	...........	1467.52
	481	4.82	1.80939E-001	1.86220E-006	0.00000E+000	1.80962E-001	0.00000E+000	9	...........	1467.52
	485	4.86	1.84924E-001	1.98359E-006	0.00000E+000	1.84961E-001	0.00000E+000	9	...........	1467.52
	489	4.9	1.88923E-001	2.09483E-006	0.00000E+000	1.88960E-001	0.00000E+000	9	...........	1467.52
	493	4.94	1.92936E-001	2.20078E-006	0.00000E+000	1.92958E-001	0.00000E+000	9	...........	1467.52
	497	4.98	1.96921E-001	2.29603E-006	0.00000E+000	1.96957E-001	0.00000E+000	9	...........	1467.52
	501	5.02	2.00906E-001	2.40175E-006	0.00000E+000	2.00955E-001	0.00000E+000	9	...........	1467.52
	505	5.06	2.04927E-001	2.49583E-006	0.00000E+000	2.04954E-001	0.00000E+000	9	...........	1467.52
	509	5.1	2.08915E-001	2.59353E-006	0.00000E+000	2.08953E-001	0.00000E+000	9	...........	1467.52
	513	5.14	2.12902E-001	2.68604E-006	0.00000E+000	2.12951E-001	0.00000E+000	9	...........	1467.52
	517	5.18	2.16901E-001	2.78714E-006	0.00000E+000	2.16950E-001	0.00000E+000	9	...........	1467.52
	521	5.22	2.20917E-001	2.87442E-006	0.00000E+000	2.20948E-001	0.00000E+000	9	...........	1467.52
	525	5.26	2.24905E-001	2.96816E-006	0.00000E+000	2.24947E-001	0.00000E+000	9	...........	1467.52
	529	5.3	2.28892E-001	3.04630E-006	0.00000E+000	2.28946E-001	0.00000E+000	9	...........	1467.52
	533	5.34	2.32907E-001	3.14422E-006	0.00000E+000	2.32944E-001	0.00000E+000	9	...........	1467.52
	537	5.38	2.36901E-001	3.23083E-006	0.00000E+000	2.36943E-001	0.00000E+000	9	...........	1467.52
	541	5.42	2.40887E-001	3.32485E-006	0.00000E+000	2.40941E-001	0.00000E+000	9	...........	1467.52
	545	5.46	2.44915E-001	3.41542E-006	0.00000E+000	2.44940E-001	0.00000E+000	9	...........	1467.52
	549	5.5	2.48899E-001	3.50381E-006	0.00000E+000	2.48939E-001	0.00000E+000	9	...........	1467.52
	553	5.54	2.52877E-001	3.57548E-006	0.00000E+000	2.52925E-001	0.00000E+000	9	...........	1467.52
	557	5.58	2.56893E-001	3.68277E-006	0.00000E+000	2.56923E-001	0.00000E+000	9	...........	1467.52
	561	5.62	2.60875E-001	3.77456E-006	0.00000E+000	2.60922E-001	0.00000E+000	9	...........	1467.52
	565	5.66	2.64868E-001	3.86134E-006	0.00000E+000	2.64921E-001	0.00000E+000	9	...........	1467.52
	569	5.7	2.68905E-001	3.95786E-006	0.00000E+000	2.68919E-001	0.00000E+000	9	...........	1467.52
	573	5.74	2.72875E-001	4.06192E-006	0.00000E+000	2.72918E-001	0.00000E+000	9	...........	1467.52
	577	5.78	2.76866E-001	4.16380E-006	0.00000E+000	2.76916E-001	0.00000E+000	9	...........	1467.52
	581	5.82	2.80869E-001	4.26027E-006	0.00000E+000	2.80915E-001	0.00000E+000	9	...........	1467.52
	585	5.86	2.84887E-001	4.36778E-006	0.00000E+000	2.84914E-001	0.00000E+000	9	...........	1467.52
	589	5.9	2.88880E-001	4.48733E-006	0.00000E+000	2.88912E-001	0.00000E+000	9	...........	1467.52
	593	5.94	2.92875E-001	4.60994E-006	0.00000E+000	2.92911E-001	0.00000E+000	9	...........	1467.52
	597	5.98	2.96884E-001	4.73450E-006	0.00000E+000	2.96909E-001	0.00000E+000	9	...........	1467.52
	601	6.02	2.98925E-001	1.88165E-006	0.00000E+000	2.98909E-001	0.00000E+000	9	...........	1467.52
	605	6.06	2.94945E-001	1.12241E-006	0.00000E+000	2.94910E-001	0.00000E+000	9	...........	1467.52
[...]
	861	8.62	1.60936E-001	1.27495E-006	0.00000E+000	1.60969E-001	0.00000E+000	9	...........	1467.61
	865	8.66	1.64916E-001	1.40057E-006	0.00000E+000	1.64968E-001	0.00000E+000	9	...........	1467.61
	869	8.7	1.68934E-001	1.52597E-006	0.00000E+000	1.68966E-001	0.00000E+000	9	...........	1467.61
	873	8.74	1.72934E-001	1.64752E-006	0.00000E+000	1.72965E-001	0.00000E+000	9	...........	1467.61
	877	8.78	1.76922E-001	1.75932E-006	0.00000E+000	1.76964E-001	0.00000E+000	9	...........	1467.61
	881	8.82	1.80934E-001	1.86878E-006	0.00000E+000	1.80962E-001	0.00000E+000	9	...........	1467.61
	885	8.86	1.84932E-001	1.98030E-006	0.00000E+000	1.84961E-001	0.00000E+000	9	...........	1467.61
	889	8.9	1.88929E-001	2.08480E-006	0.00000E+000	1.88960E-001	0.00000E+000	9	...........	1467.61
	893	8.94	1.92947E-001	2.18785E-006	0.00000E+000	1.92958E-001	0.00000E+000	9	...........	1467.61
	897	8.98	1.96933E-001	2.29101E-006	0.00000E+000	1.96957E-001	0.00000E+000	9	...........	1467.61
	901	9.02	2.00912E-001	2.39216E-006	0.00000E+000	2.00955E-001	0.00000E+000	9	...........	1467.61
	905	9.06	2.04927E-001	2.48758E-006	0.00000E+000	2.04954E-001	0.00000E+000	9	...........	1467.61
	909	9.1	2.08908E-001	2.59403E-006	0.00000E+000	2.08953E-001	0.00000E+000	9	...........	1467.61
	913	9.14	2.12908E-001	2.67874E-006	0.00000E+000	2.12951E-001	0.00000E+000	9	...........	1467.61
	917	9.18	2.16906E-001	2.77906E-006	0.00000E+000	2.16950E-001	0.00000E+000	9	...........	1467.61
	921	9.22	2.20920E-001	2.86472E-006	0.00000E+000	2.20948E-001	0.00000E+000	9	...........	1467.61
	925	9.26	2.24906E-001	2.95685E-006	0.00000E+000	2.24947E-001	0.00000E+000	9	...........	1467.61
	929	9.3	2.28900E-001	3.05226E-006	0.00000E+000	2.28946E-001	0.00000E+000	9	...........	1467.52
	933	9.34	2.32912E-001	3.14595E-006	0.00000E+000	2.32944E-001	0.00000E+000	9	...........	1467.52
	937	9.38	2.36912E-001	3.23796E-006	0.00000E+000	2.36943E-001	0.00000E+000	9	...........	1467.52
	941	9.42	2.40884E-001	3.33126E-006	0.00000E+000	2.40941E-001	0.00000E+000	9	...........	1467.52
	945	9.46	2.44911E-001	3.41313E-006	0.00000E+000	2.44940E-001	0.00000E+000	9	...........	1467.52
	949	9.5	2.48890E-001	3.50582E-006	0.00000E+000	2.48939E-001	0.00000E+000	9	...........	1467.52
	953	9.54	2.52873E-001	3.57637E-006	0.00000E+000	2.52925E-001	0.00000E+000	9	...........	1467.52
	957	9.58	2.56891E-001	3.68985E-006	0.00000E+000	2.56923E-001	0.00000E+000	9	...........	1467.52
	961	9.62	2.60877E-001	3.78927E-006	0.00000E+000	2.60922E-001	0.00000E+000	9	...........	1467.52
	965	9.66	2.64874E-001	3.88329E-006	0.00000E+000	2.64921E-001	0.00000E+000	9	...........	1467.52
	969	9.7	2.68899E-001	3.97631E-006	0.00000E+000	2.68919E-001	0.00000E+000	9	...........	1467.52
	973	9.74	2.72871E-001	4.07535E-006	0.00000E+000	2.72918E-001	0.00000E+000	9	...........	1467.52
	977	9.78	2.76869E-001	4.17015E-006	0.00000E+000	2.76916E-001	0.00000E+000	9	...........	1467.52
	981	9.82	2.80861E-001	4.27086E-006	0.00000E+000	2.80915E-001	0.00000E+000	9	...........	1467.52
	985	9.86	2.84877E-001	4.38522E-006	0.00000E+000	2.84914E-001	0.00000E+000	9	...........	1467.52
	989	9.9	2.88881E-001	4.48298E-006	0.00000E+000	2.88912E-001	0.00000E+000	9	...........	1467.52
	993	9.94	2.92867E-001	4.60721E-006	0.00000E+000	2.92911E-001	0.00000E+000	9	...........	1467.52
	997	9.98	2.96869E-001	4.72503E-006	0.00000E+000	2.96909E-001	0.00000E+000	9	...........	1467.52
	1001	10.02	2.98920E-001	1.87223E-006	0.00000E+000	2.98909E-001	0.00000E+000	9	...........	1467.52
	1005	10.06	2.94939E-001	1.10491E-006	0.00000E+000	2.94910E-001	0.00000E+000	9	...........	1467.52
	1009	10.1	2.90909E-001	7.01957E-007	0.00000E+000	2.90911E-001	0.00000E+000	9	...........	1467.52
	1013	10.14	2.86923E-001	3.91972E-007	0.00000E+000	2.86913E-001	0.00000E+000	9	...........	1467.52
	1017	10.18	2.82910E-001	1.44128E-007	0.00000E+000	2.82914E-001	0.00000E+000	9	...........	1467.52
	1021	10.22	2.78904E-001	-7.11117E-008	0.00000E+000	2.78916E-001	0.00000E+000	9	...........	1467.52
	1025	10.26	2.74909E-001	-2.50348E-007	0.00000E+000	2.74917E-001	0.00000E+000	9	...........	1467.52
	1029	10.3	2.70927E-001	-4.29083E-007	0.00000E+000	2.70918E-001	0.00000E+000	9	...........	1467.52
	1033	10.34	2.66898E-001	-5.66855E-007	0.00000E+000	2.66920E-001	0.00000E+000	9	...........	1467.52
	1037	10.38	2.62915E-001	-7.10979E-007	0.00000E+000	2.62921E-001	0.00000E+000	9	...........	1467.52
	1041	10.42	2.58920E-001	-8.48751E-007	0.00000E+000	2.58923E-001	0.00000E+000	9	...........	1467.52
	1045	10.46	2.54902E-001	-9.85630E-007	0.00000E+000	2.54924E-001	0.00000E+000	9	...........	1467.52
	1049	10.5	2.50936E-001	-1.09370E-006	0.00000E+000	2.50938E-001	0.00000E+000	9	...........	1467.52
	1053	10.54	2.46939E-001	-1.22406E-006	0.00000E+000	2.46939E-001	0.00000E+000	9	...........	1467.52
	1057	10.58	2.42928E-001	-1.33000E-006	0.00000E+000	2.42941E-001	0.00000E+000	9	...........	1467.52
	1061	10.62	2.38942E-001	-1.45089E-006	0.00000E+000	2.38942E-001	0.00000E+000	9	...........	1467.52
	1065	10.66	2.34949E-001	-1.55533E-006	0.00000E+000	2.34943E-001	0.00000E+000	9	...........	1467.52
	1069	10.7	2.30959E-001	-1.65665E-006	0.00000E+000	2.30945E-001	0.00000E+000	9	...........	1467.52
	1073	10.74	2.26941E-001	-1.76294E-006	0.00000E+000	2.26946E-001	0.00000E+000	9	...........	1467.52
	1077	10.78	2.22953E-001	-1.85712E-006	0.00000E+000	2.22948E-001	0.00000E+000	9	...........	1467.52
	1081	10.82	2.18951E-001	-1.97104E-006	0.00000E+000	2.18949E-001	0.00000E+000	9	...........	1467.52
	1085	10.86	2.14937E-001	-2.07459E-006	0.00000E+000	2.14950E-001	0.00000E+000	9	...........	1467.52
	1089	10.9	2.10944E-001	-2.17068E-006	0.00000E+000	2.10952E-001	0.00000E+000	9	...........	1467.52
	1093	10.94	2.06955E-001	-2.28376E-006	0.00000E+000	2.06953E-001	0.00000E+000	9	...........	1467.52
	1097	10.98	2.02957E-001	-2.37951E-006	0.00000E+000	2.02955E-001	0.00000E+000	9	...........	1467.52
	1101	11.02	1.98974E-001	-2.47548E-006	0.00000E+000	1.98956E-001	0.00000E+000	9	...........	1467.52
	1105	11.06	1.94962E-001	-2.58912E-006	0.00000E+000	1.94957E-001	0.00000E+000	9	...........	1467.52
	1109	11.1	1.90957E-001	-2.68654E-006	0.00000E+000	1.90959E-001	0.00000E+000	9	...........	1467.52
	1113	11.14	1.86969E-001	-2.80636E-006	0.00000E+000	1.86960E-001	0.00000E+000	9	...........	1467.52
	1117	11.18	1.82972E-001	-2.90652E-006	0.00000E+000	1.82962E-001	0.00000E+000	9	...........	1467.52
	1121	11.22	1.78956E-001	-3.01040E-006	0.00000E+000	1.78963E-001	0.00000E+000	9	...........	1467.52
	1125	11.26	1.74978E-001	-3.12376E-006	0.00000E+000	1.74964E-001	0.00000E+000	9	...........	1467.52
	1129	11.3	1.70977E-001	-3.23735E-006	0.00000E+000	1.70966E-001	0.00000E+000	9	...........	1467.52
	1133	11.34	1.66991E-001	-3.35516E-006	0.00000E+000	1.66967E-001	0.00000E+000	9	...........	1467.52
	1137	11.38	1.62966E-001	-3.46440E-006	0.00000E+000	1.62969E-001	0.00000E+000	9	...........	1467.52
	1141	11.42	1.58975E-001	-3.56918E-006	0.00000E+000	1.58970E-001	0.00000E+000	9	...........	1467.52
	1145	11.46	1.54991E-001	-3.68544E-006	0.00000E+000	1.54971E-001	0.00000E+000	9	...........	1467.52
	1149	11.5	1.50971E-001	-3.80404E-006	0.00000E+000	1.50973E-001	0.00000E+000	9	...........	1467.52
	1153	11.54	1.46984E-001	-3.91834E-006	0.00000E+000	1.46974E-001	0.00000E+000	9	...........	1467.52
	1157	11.58	1.42993E-001	-4.03494E-006	0.00000E+000	1.42976E-001	0.00000E+000	9	...........	1467.52
	1161	11.62	1.38981E-001	-4.14941E-006	0.00000E+000	1.38977E-001	0.00000E+000	9	...........	1467.52
	1165	11.66	1.34991E-001	-4.26478E-006	0.00000E+000	1.34978E-001	0.00000E+000	9	...........	1467.52
	1169	11.7	1.31001E-001	-4.38494E-006	0.00000E+000	1.30980E-001	0.00000E+000	9	...........	1467.52
	1173	11.74	1.26998E-001	-4.49362E-006	0.00000E+000	1.26994E-001	0.00000E+000	9	...........	1467.52
	1177	11.78	1.23000E-001	-4.62314E-006	0.00000E+000	1.22995E-001	0.00000E+000	9	...........	1467.52
	1181	11.82	1.19011E-001	-4.74637E-006	0.00000E+000	1.18996E-001	0.00000E+000	9	...........	1467.52
	1185	11.86	1.15018E-001	-4.86725E-006	0.00000E+000	1.14998E-001	0.00000E+000	9	...........	1467.52
	1189	11.9	1.11013E-001	-4.98891E-006	0.00000E+000	1.10999E-001	0.00000E+000	9	...........	1467.52
	1193	11.94	1.07012E-001	-5.10907E-006	0.00000E+000	1.07001E-001	0.00000E+000	9	...........	1467.52
	1197	11.98	1.03026E-001	-5.24055E-006	0.00000E+000	1.03002E-001	0.00000E+000	9	...........	1467.52
	1200	12.01	1.00015E-001	-5.37564E-006	0.00000E+000	1.00003E-001	0.00000E+000	9	...........	1467.52
CURVE4	TABLE
	Pt	T	Vf	Im	Vu	Sig	Ach	IERange	Over	Temp
	#	s	V vs. Ref.	A	V	V	V	#	bits	deg C
	1201	12.02	9.99880E-002	-3.89220E-006	0.00000E+000	1.00003E-001	0.00000E+000	9	...........	1467.52