File: input/ECSA_test/CV_ECSA_#2_#5.DTA
EXPLAIN
TAG	CV
TITLE	LABEL	ECSA	Test Identifier
DATE	LABEL	2/13/2024	Date
TIME	LABEL	12:04:25	Time
NOTES	NOTES	1	Notes...

PSTAT	PSTAT	IFC1010-36068	Potentiostat
VINIT	POTEN	1.00000E-001	F	Initial E (V)
VLIMIT1	POTEN	3.00000E-001	F	Scan Limit 1 (V)
VLIMIT2	POTEN	1.00000E-001	F	Scan Limit 2 (V)
VFINAL	POTEN	1.00000E-001	F	Final E (V)
SCANRATE	QUANT	4.99999E+001	A Real Number
STEPSIZE	QUANT	1.00000E+000	Step Size (mV)
CYCLES	IQUANT	3	Cycles (#)
IMODE	SELECTOR	1	I/E Range Mode
IRANGE	QUANT	3.00000E-001	Max Current (mA)
AREA	QUANT	1.00000E+000	Sample Area (cm^2)
EQDELAY	QUANT	0.00000E+000	Equil. Time (s)
IRCOMP	SELECTOR	0	IRComp
PFCOR	QUANT	5.00000E+001	PF Corr. (ohm)
SAMPLINGMODE	SELECTOR	2	Sampling Mode
EOC	QUANT	0.3246219	Open Circuit (V)
ELECTRODETYPE	SELECTOR	0	Electrode Type
STRIPPING	TOGGLE	F	Used for Stripping
SEQUENCER	TOGGLE	TRUE	Run as Sequence
PSTATMODEL	IQUANT	64	Pstat Model
PSTATSECTION	LABEL	IFC1010-36068	Pstat Section
PSTATSERIALNO	LABEL	36068	Pstat Serial Number
CTRLMODE	IQUANT	1	Control Mode
ELECTROMETER	IQUANT	0	RE=0 or CS=1
IESTAB	IQUANT	2	I/E Stability
CASPEED	IQUANT	4	Control Amp Speed
CONVENTION	IQUANT	1	Current Convention
ICHRANGE	IQUANT	2	Ich Range
ICHRANGEMODE	TOGGLE	F	Ich Auto Range
ICHOFFSETENABLE	TOGGLE	F	Ich Offset Enable
ICHOFFSET	QUANT	0	Ich Offset (V)
ICHFILTER	IQUANT	3	Ich Filter
VCHRANGE	IQUANT	2	Vch Range
VCHRANGEMODE	TOGGLE	F	Vch Auto Range
VCHOFFSETENABLE	TOGGLE	F	Vch Offset Enable
VCHOFFSET	QUANT	0	Vch Offset (V)
VCHFILTER	IQUANT	3	Vch Filter
IERANGELOWERLIMIT	IQUANT	4	I/E Range Lower Limit
IERANGEMODE	TOGGLE	F	I/E AutoRange
IERANGE	IQUANT	9	I/E Range
ACHSELECT	IQUANT	0	Ach Select
ACHRANGE	IQUANT	2	Ach Range
ACHOFFSETENABLE	TOGGLE	F	Ach Offset Enable
ACHOFFSET	QUANT	0	Ach Offset (V)
ACHFILTER	IQUANT	1	Ach Filter
SENSECABLEID	IQUANT	13	Sense Cable ID
PWRCABLEID	IQUANT	13	Power Cable ID
DCCALDATE	LABEL	8/11/2023	DC Calibration Date
ACCALDATE	LABEL	6/2/2023	AC Calibration Date
FRAMEWORKVERSION	LABEL	7.10.3	Framework Version
INSTRUMENTVERSION	LABEL	4.91	Instrument Version
COMMVERSION	LABEL	3.10	Communications Version
CPUPLDVERSION	LABEL	2.22	CPU PLD Version
CTRLPLDVERSION	LABEL	0.00	CTRL PLD Version
PSTATPLDVERSION	LABEL	0.00	PSTAT PLD Version
CURVE1	TABLE
	Pt	T	Vf	Im	Vu	Sig	Ach	IERange	Over	Temp
	#	s	V vs. Ref.	A	V	V	V	#	bits	deg C
	0	0.02	9.99949E-002	-2.54434E-006	0.00000E+000	1.00003E-001	0.00000E+000	9	...........	1467.79
	4	0.1	1.03992E-001	-1.37950E-006	0.00000E+000	1.04002E-001	0.00000E+000	9	...........	1467.79
	8	0.18	1.07984E-001	-1.10486E-006	0.00000E+000	1.08000E-001	0.00000E+000	9	...........	1467.79
	12	0.26	1.11965E-001	-8.88087E-007	0.00000E+000	1.11999E-001	0.00000E+000	9	...........	1467.79
	16	0.34	1.15991E-001	-6.98523E-007	0.00000E+000	1.15997E-001	0.00000E+000	9	...........	1467.75
	20	0.42	1.19977E-001	-5.27208E-007	0.00000E+000	1.19996E-001	0.00000E+000	9	...........	1467.52
	24	0.5	1.23969E-001	-3.70777E-007	0.00000E+000	1.23995E-001	0.00000E+000	9	...........	1467.52
	28	0.58	1.27987E-001	-2.18102E-007	0.00000E+000	1.28006E-001	0.00000E+000	9	...........	1467.52
	32	0.66	1.31993E-001	-7.83346E-008	0.00000E+000	1.32004E-001	0.00000E+000	9	...........	1467.52
	36	0.74	1.35981E-001	4.57976E-008	0.00000E+000	1.36003E-001	0.00000E+000	9	...........	1467.52
	40	0.82	1.39966E-001	1.65117E-007	0.00000E+000	1.40002E-001	0.00000E+000	9	...........	1467.52
	44	0.9	1.43986E-001	2.84436E-007	0.00000E+000	1.44000E-001	0.00000E+000	9	...........	1467.52
	48	0.98	1.47987E-001	4.01419E-007	0.00000E+000	1.47999E-001	0.00000E+000	9	...........	1467.52
	52	1.06	1.51967E-001	5.07162E-007	0.00000E+000	1.51997E-001	0.00000E+000	9	...........	1467.52
	56	1.14	1.55979E-001	6.04114E-007	0.00000E+000	1.55996E-001	0.00000E+000	9	...........	1467.52
	60	1.22	1.59968E-001	7.06185E-007	0.00000E+000	1.59995E-001	0.00000E+000	9	...........	1467.52
	64	1.3	1.63982E-001	8.09703E-007	0.00000E+000	1.64006E-001	0.00000E+000	9	...........	1467.52
	68	1.38	1.67994E-001	9.12330E-007	0.00000E+000	1.68004E-001	0.00000E+000	9	...........	1467.52
	72	1.46	1.71972E-001	1.01003E-006	0.00000E+000	1.72003E-001	0.00000E+000	9	...........	1467.52
	76	1.54	1.75979E-001	1.08993E-006	0.00000E+000	1.76002E-001	0.00000E+000	9	...........	1467.52
	80	1.62	1.79953E-001	1.18318E-006	0.00000E+000	1.80000E-001	0.00000E+000	9	...........	1467.52
	84	1.7	1.83970E-001	1.27474E-006	0.00000E+000	1.83999E-001	0.00000E+000	9	...........	1467.52
	88	1.78	1.87973E-001	1.36001E-006	0.00000E+000	1.87997E-001	0.00000E+000	9	...........	1467.52
	92	1.86	1.91997E-001	1.43651E-006	0.00000E+000	1.91996E-001	0.00000E+000	9	...........	1467.52
	96	1.94	1.95980E-001	1.52531E-006	0.00000E+000	1.95995E-001	0.00000E+000	9	...........	1467.52
	100	2.02	1.99995E-001	1.60073E-006	0.00000E+000	2.00006E-001	0.00000E+000	9	...........	1467.52
	104	2.1	2.03974E-001	1.68528E-006	0.00000E+000	2.04004E-001	0.00000E+000	9	...........	1467.52
	108	2.18	2.07980E-001	1.76387E-006	0.00000E+000	2.08003E-001	0.00000E+000	9	...........	1467.52
	112	2.26	2.11975E-001	1.83745E-006	0.00000E+000	2.12001E-001	0.00000E+000	9	...........	1467.52
	116	2.34	2.15962E-001	1.91652E-006	0.00000E+000	2.16000E-001	0.00000E+000	9	...........	1467.52
	120	2.42	2.19970E-001	1.99628E-006	0.00000E+000	2.19999E-001	0.00000E+000	9	...........	1467.52
	124	2.5	2.23975E-001	2.07620E-006	0.00000E+000	2.23997E-001	0.00000E+000	9	...........	1467.52
	128	2.58	2.27957E-001	2.14620E-006	0.00000E+000	2.27996E-001	0.00000E+000	9	...........	1467.52
	132	2.66	2.31966E-001	2.27434E-006	0.00000E+000	2.31994E-001	0.00000E+000	9	...........	1467.52
	136	2.74	2.35963E-001	2.33112E-006	0.00000E+000	2.36006E-001	0.00000E+000	9	...........	1467.52
	140	2.82	2.39969E-001	2.39805E-006	0.00000E+000	2.40004E-001	0.00000E+000	9	...........	1467.52
	144	2.9	2.43995E-001	2.46593E-006	0.00000E+000	2.44003E-001	0.00000E+000	9	...........	1467.52
	148	2.98	2.47979E-001	2.54116E-006	0.00000E+000	2.48001E-001	0.00000E+000	9	...........	1467.52
	152	3.06	2.51965E-001	2.61159E-006	0.00000E+000	2.52000E-001	0.00000E+000	9	...........	1467.52
	156	3.14	2.55967E-001	2.69266E-006	0.00000E+000	2.55999E-001	0.00000E+000	9	...........	1467.52
	160	3.22	2.59968E-001	2.76897E-006	0.00000E+000	2.59997E-001	0.00000E+000	9	...........	1467.52
	164	3.3	2.63972E-001	2.84920E-006	0.00000E+000	2.63996E-001	0.00000E+000	9	...........	1467.52
	168	3.38	2.67959E-001	2.93255E-006	0.00000E+000	2.67994E-001	0.00000E+000	9	...........	1467.52
	172	3.46	2.71986E-001	3.01095E-006	0.00000E+000	2.72006E-001	0.00000E+000	9	...........	1467.52
	176	3.54	2.75980E-001	3.09171E-006	0.00000E+000	2.76004E-001	0.00000E+000	9	...........	1467.52
	180	3.62	2.79957E-001	3.18699E-006	0.00000E+000	2.80003E-001	0.00000E+000	9	...........	1467.52
	184	3.7	2.83986E-001	3.27115E-006	0.00000E+000	2.84001E-001	0.00000E+000	9	...........	1467.52
	188	3.78	2.87983E-001	3.36140E-006	0.00000E+000	2.88000E-001	0.00000E+000	9	...........	1467.52
	192	3.86	2.91960E-001	3.45223E-006	0.00000E+000	2.91999E-001	0.00000E+000	9	...........	1467.52
	196	3.94	2.95985E-001	3.54726E-006	0.00000E+000	2.95997E-001	0.00000E+000	9	...........	1467.52
	200	4.02	2.99975E-001	3.65017E-006	0.00000E+000	2.99996E-001	0.00000E+000	9	...........	1467.52
	204	4.1	2.96009E-001	1.61233E-006	0.00000E+000	2.95997E-001	0.00000E+000	9	...........	1467.52
	208	4.18	2.91983E-001	1.30348E-006	0.00000E+000	2.91999E-001	0.00000E+000	9	...........	1467.52
	212	4.26	2.88000E-001	1.08356E-006	0.00000E+000	2.88000E-001	0.00000E+000	9	...........	1467.52
	216	4.34	2.84008E-001	8.94081E-007	0.00000E+000	2.84001E-001	0.00000E+000	9	...........	1467.52
	220	4.42	2.79979E-001	7.36732E-007	0.00000E+000	2.80003E-001	0.00000E+000	9	...........	1467.52
	224	4.5	2.75996E-001	5.95240E-007	0.00000E+000	2.76004E-001	0.00000E+000	9	...........	1467.52
	228	4.58	2.71993E-001	4.64932E-007	0.00000E+000	2.72006E-001	0.00000E+000	9	...........	1467.52
	232	4.66	2.67970E-001	3.44833E-007	0.00000E+000	2.67994E-001	0.00000E+000	9	...........	1467.52
	236	4.74	2.63987E-001	2.35612E-007	0.00000E+000	2.63996E-001	0.00000E+000	9	...........	1467.52
	240	4.82	2.59990E-001	1.28534E-007	0.00000E+000	2.59997E-001	0.00000E+000	9	...........	1467.52
	244	4.9	2.55983E-001	2.59620E-008	0.00000E+000	2.55999E-001	0.00000E+000	9	...........	1467.52
	248	4.98	2.51986E-001	-7.60256E-008	0.00000E+000	2.52000E-001	0.00000E+000	9	...........	1467.52
	252	5.06	2.47997E-001	-1.63964E-007	0.00000E+000	2.48001E-001	0.00000E+000	9	...........	1467.52
	256	5.14	2.44007E-001	-2.55575E-007	0.00000E+000	2.44003E-001	0.00000E+000	9	...........	1467.52
	260	5.22	2.40003E-001	-3.48438E-007	0.00000E+000	2.40004E-001	0.00000E+000	9	...........	1467.52
	264	5.3	2.35990E-001	-4.38797E-007	0.00000E+000	2.36006E-001	0.00000E+000	9	...........	1467.52
	268	5.38	2.31994E-001	-5.31937E-007	0.00000E+000	2.31994E-001	0.00000E+000	9	...........	1467.52
	272	5.46	2.27985E-001	-6.20182E-007	0.00000E+000	2.27996E-001	0.00000E+000	9	...........	1467.52
	276	5.54	2.23995E-001	-7.05311E-007	0.00000E+000	2.23997E-001	0.00000E+000	9	...........	1467.52
	280	5.62	2.20001E-001	-7.94306E-007	0.00000E+000	2.19999E-001	0.00000E+000	9	...........	1467.52
	284	5.7	2.15983E-001	-8.86752E-007	0.00000E+000	2.16000E-001	0.00000E+000	9	...........	1467.52
	288	5.78	2.11997E-001	-9.76387E-007	0.00000E+000	2.12001E-001	0.00000E+000	9	...........	1467.52
	292	5.86	2.07993E-001	-1.06602E-006	0.00000E+000	2.08003E-001	0.00000E+000	9	...........	1467.52
	296	5.94	2.04000E-001	-1.15207E-006	0.00000E+000	2.04004E-001	0.00000E+000	9	...........	1467.52
	300	6.02	2.00005E-001	-1.24223E-006	0.00000E+000	2.00006E-001	0.00000E+000	9	...........	1467.52
	304	6.1	1.95998E-001	-1.32998E-006	0.00000E+000	1.95995E-001	0.00000E+000	9	...........	1467.52
	308	6.18	1.92016E-001	-1.41895E-006	0.00000E+000	1.91996E-001	0.00000E+000	9	...........	1467.52
	312	6.26	1.87993E-001	-1.52249E-006	0.00000E+000	1.87997E-001	0.00000E+000	9	...........	1467.52
	316	6.34	1.83998E-001	-1.61043E-006	0.00000E+000	1.83999E-001	0.00000E+000	9	...........	1467.60
	320	6.42	1.79986E-001	-1.71370E-006	0.00000E+000	1.80000E-001	0.00000E+000	9	...........	1467.70
	324	6.5	1.76002E-001	-1.80383E-006	0.00000E+000	1.76002E-001	0.00000E+000	9	...........	1467.70
	328	6.58	1.72001E-001	-1.90385E-006	0.00000E+000	1.72003E-001	0.00000E+000	9	...........	1467.70
	332	6.66	1.68016E-001	-1.99615E-006	0.00000E+000	1.68004E-001	0.00000E+000	9	...........	1467.70
	336	6.74	1.64005E-001	-2.09224E-006	0.00000E+000	1.64006E-001	0.00000E+000	9	...........	1467.70
	340	6.82	1.59994E-001	-2.19301E-006	0.00000E+000	1.59995E-001	0.00000E+000	9	...........	1467.70
	344	6.9	1.56000E-001	-2.29396E-006	0.00000E+000	1.55996E-001	0.00000E+000	9	...........	1467.70
	348	6.98	1.51987E-001	-2.38343E-006	0.00000E+000	1.51997E-001	0.00000E+000	9	...........	1467.70
	352	7.06	1.48002E-001	-2.47604E-006	0.00000E+000	1.47999E-001	0.00000E+000	9	...........	1467.70
	356	7.14	1.43996E-001	-2.57770E-006	0.00000E+000	1.44000E-001	0.00000E+000	9	...........	1467.70
	360	7.22	1.39987E-001	-2.67515E-006	0.00000E+000	1.40002E-001	0.00000E+000	9	...........	1467.70
	364	7.3	1.36001E-001	-2.76807E-006	0.00000E+000	1.36003E-001	0.00000E+000	9	...........	1467.70
	368	7.38	1.32019E-001	-2.86725E-006	0.00000E+000	1.32004E-001	0.00000E+000	9	...........	1467.52
	372	7.46	1.28020E-001	-2.97110E-006	0.00000E+000	1.28006E-001	0.00000E+000	9	...........	1467.52
	376	7.54	1.23991E-001	-3.05834E-006	0.00000E+000	1.23995E-001	0.00000E+000	9	...........	1467.52
	380	7.62	1.20006E-001	-3.15301E-006	0.00000E+000	1.19996E-001	0.00000E+000	9	...........	1467.52
	384	7.7	1.16016E-001	-3.25884E-006	0.00000E+000	1.15997E-001	0.00000E+000	9	...........	1467.52
	388	7.78	1.11995E-001	-3.35490E-006	0.00000E+000	1.11999E-001	0.00000E+000	9	...........	1467.52
	392	7.86	1.08002E-001	-3.45377E-006	0.00000E+000	1.08000E-001	0.00000E+000	9	...........	1467.52
	396	7.94	1.04019E-001	-3.54728E-006	0.00000E+000	1.04002E-001	0.00000E+000	9	...........	1467.52
	400	8.02	1.00006E-001	-3.64787E-006	0.00000E+000	1.00003E-001	0.00000E+000	9	...........	1467.52
CURVE2	TABLE
	Pt	T	Vf	Im	Vu	Sig	Ach	IERange	Over	Temp
	#	s	V vs. Ref.	A	V	V	V	#	bits	deg C
	401	8.04	1.00981E-001	-2.03769E-006	0.00000E+000	1.01003E-001	0.00000E+000	9	...........	1467.52
	405	8.12	1.04976E-001	-1.55031E-006	0.00000E+000	1.05001E-001	0.00000E+000	9	...........	1467.52
	409	8.2	1.08973E-001	-1.26062E-006	0.00000E+000	1.09000E-001	0.00000E+000	9	...........	1467.52
	413	8.28	1.12962E-001	-1.02076E-006	0.00000E+000	1.12999E-001	0.00000E+000	9	...........	1467.52
	417	8.36	1.16979E-001	-8.09580E-007	0.00000E+000	1.16997E-001	0.00000E+000	9	...........	1467.43
	421	8.44	1.20979E-001	-6.29363E-007	0.00000E+000	1.20996E-001	0.00000E+000	9	...........	1467.43
	425	8.52	1.24976E-001	-4.65726E-007	0.00000E+000	1.24994E-001	0.00000E+000	9	...........	1467.43
	429	8.6	1.28998E-001	-3.11131E-007	0.00000E+000	1.29005E-001	0.00000E+000	9	...........	1467.43
	433	8.68	1.32991E-001	-1.62211E-007	0.00000E+000	1.33004E-001	0.00000E+000	9	...........	1467.43
	437	8.76	1.36972E-001	-1.96069E-008	0.00000E+000	1.37003E-001	0.00000E+000	9	...........	1467.43
	441	8.84	1.41001E-001	1.03579E-007	0.00000E+000	1.41001E-001	0.00000E+000	9	...........	1467.43
	445	8.92	1.44985E-001	2.28212E-007	0.00000E+000	1.45000E-001	0.00000E+000	9	...........	1467.43
	449	9	1.48967E-001	3.42802E-007	0.00000E+000	1.48998E-001	0.00000E+000	9	...........	1467.43
	453	9.08	1.52959E-001	4.50076E-007	0.00000E+000	1.52997E-001	0.00000E+000	9	...........	1467.43
	457	9.16	1.56983E-001	5.66168E-007	0.00000E+000	1.56996E-001	0.00000E+000	9	...........	1467.43
	461	9.24	1.60964E-001	6.67683E-007	0.00000E+000	1.60994E-001	0.00000E+000	9	...........	1467.43
	465	9.32	1.64966E-001	7.66666E-007	0.00000E+000	1.65005E-001	0.00000E+000	9	...........	1467.43
	469	9.4	1.68982E-001	8.63924E-007	0.00000E+000	1.69004E-001	0.00000E+000	9	...........	1467.79
	473	9.48	1.72979E-001	9.71726E-007	0.00000E+000	1.73003E-001	0.00000E+000	9	...........	1467.79
	477	9.56	1.76972E-001	1.06170E-006	0.00000E+000	1.77001E-001	0.00000E+000	9	...........	1467.79
	481	9.64	1.80994E-001	1.15553E-006	0.00000E+000	1.81000E-001	0.00000E+000	9	...........	1467.79
	485	9.72	1.84986E-001	1.24506E-006	0.00000E+000	1.84998E-001	0.00000E+000	9	...........	1467.79
	489	9.8	1.88965E-001	1.33427E-006	0.00000E+000	1.88997E-001	0.00000E+000	9	...........	1467.79
	493	9.88	1.92988E-001	1.41075E-006	0.00000E+000	1.92996E-001	0.00000E+000	9	...........	1467.79
	497	9.96	1.96971E-001	1.49571E-006	0.00000E+000	1.96994E-001	0.00000E+000	9	...........	1467.79
	501	10.04	2.00971E-001	1.57965E-006	0.00000E+000	2.01005E-001	0.00000E+000	9	...........	1467.79
	505	10.12	2.04985E-001	1.66071E-006	0.00000E+000	2.05004E-001	0.00000E+000	9	...........	1467.79
	509	10.2	2.08972E-001	1.74206E-006	0.00000E+000	2.09003E-001	0.00000E+000	9	...........	1467.79
	513	10.28	2.12962E-001	1.82154E-006	0.00000E+000	2.13001E-001	0.00000E+000	9	...........	1467.79
	517	10.36	2.16955E-001	1.89902E-006	0.00000E+000	2.17000E-001	0.00000E+000	9	...........	1467.61
	521	10.44	2.20978E-001	1.98551E-006	0.00000E+000	2.20998E-001	0.00000E+000	9	...........	1467.61
	525	10.52	2.24966E-001	2.05901E-006	0.00000E+000	2.24997E-001	0.00000E+000	9	...........	1467.61
	529	10.6	2.28967E-001	2.13412E-006	0.00000E+000	2.28996E-001	0.00000E+000	9	...........	1467.61
	533	10.68	2.32979E-001	2.21043E-006	0.00000E+000	2.32994E-001	0.00000E+000	9	...........	1467.61
	537	10.76	2.36981E-001	2.29103E-006	0.00000E+000	2.37005E-001	0.00000E+000	9	...........	1467.61
	541	10.84	2.40969E-001	2.36595E-006	0.00000E+000	2.41004E-001	0.00000E+000	9	...........	1467.61
	545	10.92	2.44987E-001	2.43892E-006	0.00000E+000	2.45002E-001	0.00000E+000	9	...........	1467.61
	549	11	2.48963E-001	2.52224E-006	0.00000E+000	2.49001E-001	0.00000E+000	9	...........	1467.61
	553	11.08	2.52953E-001	2.59972E-006	0.00000E+000	2.53000E-001	0.00000E+000	9	...........	1467.61
	557	11.16	2.56968E-001	2.67839E-006	0.00000E+000	2.56998E-001	0.00000E+000	9	...........	1467.61
	561	11.24	2.60954E-001	2.75709E-006	0.00000E+000	2.60997E-001	0.00000E+000	9	...........	1467.61
	565	11.32	2.64954E-001	2.83109E-006	0.00000E+000	2.64995E-001	0.00000E+000	9	...........	1467.61
	569	11.4	2.68975E-001	2.91230E-006	0.00000E+000	2.68994E-001	0.00000E+000	9	...........	1467.52
	573	11.48	2.72975E-001	3.00335E-006	0.00000E+000	2.73005E-001	0.00000E+000	9	...........	1467.52
	577	11.56	2.76975E-001	3.09321E-006	0.00000E+000	2.77004E-001	0.00000E+000	9	...........	1467.52
	581	11.64	2.80962E-001	3.17317E-006	0.00000E+000	2.81002E-001	0.00000E+000	9	...........	1467.52
	585	11.72	2.84977E-001	3.26709E-006	0.00000E+000	2.85001E-001	0.00000E+000	9	...........	1467.52
	589	11.8	2.88976E-001	3.36212E-006	0.00000E+000	2.89000E-001	0.00000E+000	9	...........	1467.52
	593	11.88	2.92959E-001	3.45011E-006	0.00000E+000	2.92998E-001	0.00000E+000	9	...........	1467.52
	597	11.96	2.96971E-001	3.54236E-006	0.00000E+000	2.96997E-001	0.00000E+000	9	...........	1467.52
	601	12.04	2.98999E-001	1.99878E-006	0.00000E+000	2.98996E-001	0.00000E+000	9	...........	1467.52
	605	12.12	2.95015E-001	1.50317E-006	0.00000E+000	2.94998E-001	0.00000E+000	9	...........	1467.52
[...]
	865	17.32	1.64960E-001	7.54787E-007	0.00000E+000	1.65005E-001	0.00000E+000	9	...........	1467.97
	869	17.4	1.68993E-001	8.58833E-007	0.00000E+000	1.69004E-001	0.00000E+000	9	...........	1467.52
	873	17.48	1.72970E-001	9.48663E-007	0.00000E+000	1.73003E-001	0.00000E+000	9	...........	1467.52
	877	17.56	1.76960E-001	1.04033E-006	0.00000E+000	1.77001E-001	0.00000E+000	9	...........	1467.52
	881	17.64	1.80986E-001	1.12966E-006	0.00000E+000	1.81000E-001	0.00000E+000	9	...........	1467.52
	885	17.72	1.84977E-001	1.22288E-006	0.00000E+000	1.84998E-001	0.00000E+000	9	...........	1467.52
	889	17.8	1.88962E-001	1.31099E-006	0.00000E+000	1.88997E-001	0.00000E+000	9	...........	1467.52
	893	17.88	1.92988E-001	1.39904E-006	0.00000E+000	1.92996E-001	0.00000E+000	9	...........	1467.52
	897	17.96	1.96978E-001	1.48272E-006	0.00000E+000	1.96994E-001	0.00000E+000	9	...........	1467.52
	901	18.04	2.00974E-001	1.56062E-006	0.00000E+000	2.01005E-001	0.00000E+000	9	...........	1467.52
	905	18.12	2.04979E-001	1.64205E-006	0.00000E+000	2.05004E-001	0.00000E+000	9	...........	1467.52
	909	18.2	2.08967E-001	1.72859E-006	0.00000E+000	2.09003E-001	0.00000E+000	9	...........	1467.52
	913	18.28	2.12961E-001	1.80296E-006	0.00000E+000	2.13001E-001	0.00000E+000	9	...........	1467.52
	917	18.36	2.16953E-001	1.88441E-006	0.00000E+000	2.17000E-001	0.00000E+000	9	...........	1467.52
	921	18.44	2.20966E-001	1.96567E-006	0.00000E+000	2.20998E-001	0.00000E+000	9	...........	1467.52
	925	18.52	2.24957E-001	2.04257E-006	0.00000E+000	2.24997E-001	0.00000E+000	9	...........	1467.52
	929	18.6	2.28962E-001	2.12491E-006	0.00000E+000	2.28996E-001	0.00000E+000	9	...........	1467.52
	933	18.68	2.32976E-001	2.20045E-006	0.00000E+000	2.32994E-001	0.00000E+000	9	...........	1467.52
	937	18.76	2.36973E-001	2.27915E-006	0.00000E+000	2.37005E-001	0.00000E+000	9	...........	1467.52
	941	18.84	2.40960E-001	2.35574E-006	0.00000E+000	2.41004E-001	0.00000E+000	9	...........	1467.52
	945	18.92	2.44983E-001	2.42849E-006	0.00000E+000	2.45002E-001	0.00000E+000	9	...........	1467.52
	949	19	2.48968E-001	2.50201E-006	0.00000E+000	2.49001E-001	0.00000E+000	9	...........	1467.52
	953	19.08	2.52961E-001	2.58358E-006	0.00000E+000	2.53000E-001	0.00000E+000	9	...........	1467.52
	957	19.16	2.56968E-001	2.65786E-006	0.00000E+000	2.56998E-001	0.00000E+000	9	...........	1467.52
	961	19.24	2.60955E-001	2.73907E-006	0.00000E+000	2.60997E-001	0.00000E+000	9	...........	1467.52
	965	19.32	2.64952E-001	2.81805E-006	0.00000E+000	2.64995E-001	0.00000E+000	9	...........	1467.52
	969	19.4	2.68979E-001	2.89786E-006	0.00000E+000	2.68994E-001	0.00000E+000	9	...........	1467.52
	973	19.48	2.72977E-001	2.98419E-006	0.00000E+000	2.73005E-001	0.00000E+000	9	...........	1467.52
	977	19.56	2.76976E-001	3.07229E-006	0.00000E+000	2.77004E-001	0.00000E+000	9	...........	1467.52
	981	19.64	2.80964E-001	3.15597E-006	0.00000E+000	2.81002E-001	0.00000E+000	9	...........	1467.52
	985	19.72	2.84974E-001	3.24714E-006	0.00000E+000	2.85001E-001	0.00000E+000	9	...........	1467.52
	989	19.8	2.88980E-001	3.33794E-006	0.00000E+000	2.89000E-001	0.00000E+000	9	...........	1467.52
	993	19.88	2.92967E-001	3.43542E-006	0.00000E+000	2.92998E-001	0.00000E+000	9	...........	1467.52
	997	19.96	2.96965E-001	3.52826E-006	0.00000E+000	2.96997E-001	0.00000E+000	9	...........	1467.52
	1001	20.04	2.98987E-001	1.98328E-006	0.00000E+000	2.98996E-001	0.00000E+000	9	...........	1467.52
	1005	20.12	2.95011E-001	1.48069E-006	0.00000E+000	2.94998E-001	0.00000E+000	9	...........	1467.52
	1009	20.2	2.90982E-001	1.20252E-006	0.00000E+000	2.90999E-001	0.00000E+000	9	...........	1467.52
	1013	20.28	2.87005E-001	9.91061E-007	0.00000E+000	2.87000E-001	0.00000E+000	9	...........	1467.52
	1017	20.36	2.82995E-001	8.12986E-007	0.00000E+000	2.83002E-001	0.00000E+000	9	...........	1467.70
	1021	20.44	2.78986E-001	6.59921E-007	0.00000E+000	2.79003E-001	0.00000E+000	9	...........	1467.70
	1025	20.52	2.74991E-001	5.27359E-007	0.00000E+000	2.75004E-001	0.00000E+000	9	...........	1467.70
	1029	20.6	2.71009E-001	3.94714E-007	0.00000E+000	2.71006E-001	0.00000E+000	9	...........	1467.70
	1033	20.68	2.66973E-001	2.74421E-007	0.00000E+000	2.66995E-001	0.00000E+000	9	...........	1467.70
	1037	20.76	2.62993E-001	1.65423E-007	0.00000E+000	2.62996E-001	0.00000E+000	9	...........	1467.70
	1041	20.84	2.58989E-001	6.32128E-008	0.00000E+000	2.58998E-001	0.00000E+000	9	...........	1467.70
	1045	20.92	2.54981E-001	-4.24748E-008	0.00000E+000	2.54999E-001	0.00000E+000	9	...........	1467.70
	1049	21	2.50987E-001	-1.35087E-007	0.00000E+000	2.51000E-001	0.00000E+000	9	...........	1467.70
	1053	21.08	2.46998E-001	-2.31233E-007	0.00000E+000	2.47002E-001	0.00000E+000	9	...........	1467.70
	1057	21.16	2.43013E-001	-3.23734E-007	0.00000E+000	2.43003E-001	0.00000E+000	9	...........	1467.70
	1061	21.24	2.38995E-001	-4.16346E-007	0.00000E+000	2.39005E-001	0.00000E+000	9	...........	1467.70
	1065	21.32	2.34992E-001	-5.07428E-007	0.00000E+000	2.35006E-001	0.00000E+000	9	...........	1467.70
	1069	21.4	2.30991E-001	-5.97870E-007	0.00000E+000	2.30995E-001	0.00000E+000	9	...........	1467.52
	1073	21.48	2.26973E-001	-6.88202E-007	0.00000E+000	2.26996E-001	0.00000E+000	9	...........	1467.52
	1077	21.56	2.22989E-001	-7.79228E-007	0.00000E+000	2.22998E-001	0.00000E+000	9	...........	1467.52
	1081	21.64	2.18999E-001	-8.70477E-007	0.00000E+000	2.18999E-001	0.00000E+000	9	...........	1467.52
	1085	21.72	2.14985E-001	-9.55105E-007	0.00000E+000	2.15000E-001	0.00000E+000	9	...........	1467.52
	1089	21.8	2.10991E-001	-1.04290E-006	0.00000E+000	2.11002E-001	0.00000E+000	9	...........	1467.52
	1093	21.88	2.06997E-001	-1.13468E-006	0.00000E+000	2.07003E-001	0.00000E+000	9	...........	1467.52
	1097	21.96	2.03002E-001	-1.22295E-006	0.00000E+000	2.03005E-001	0.00000E+000	9	...........	1467.52
	1101	22.04	1.99013E-001	-1.31682E-006	0.00000E+000	1.99006E-001	0.00000E+000	9	...........	1467.52
	1105	22.12	1.94991E-001	-1.40940E-006	0.00000E+000	1.94995E-001	0.00000E+000	9	...........	1467.52
	1109	22.2	1.90977E-001	-1.50232E-006	0.00000E+000	1.90996E-001	0.00000E+000	9	...........	1467.52
	1113	22.28	1.86991E-001	-1.59908E-006	0.00000E+000	1.86998E-001	0.00000E+000	9	...........	1467.52
	1117	22.36	1.83000E-001	-1.69097E-006	0.00000E+000	1.82999E-001	0.00000E+000	9	...........	1467.43
	1121	22.44	1.78982E-001	-1.78135E-006	0.00000E+000	1.79000E-001	0.00000E+000	9	...........	1467.43
	1125	22.52	1.74999E-001	-1.88248E-006	0.00000E+000	1.75002E-001	0.00000E+000	9	...........	1467.43
	1129	22.6	1.70996E-001	-1.97988E-006	0.00000E+000	1.71003E-001	0.00000E+000	9	...........	1467.43
	1133	22.68	1.67012E-001	-2.07878E-006	0.00000E+000	1.67005E-001	0.00000E+000	9	...........	1467.43
	1137	22.76	1.62991E-001	-2.17000E-006	0.00000E+000	1.63006E-001	0.00000E+000	9	...........	1467.43
	1141	22.84	1.58978E-001	-2.26620E-006	0.00000E+000	1.58995E-001	0.00000E+000	9	...........	1467.43
	1145	22.92	1.55000E-001	-2.35775E-006	0.00000E+000	1.54996E-001	0.00000E+000	9	...........	1467.43
	1149	23	1.50991E-001	-2.45813E-006	0.00000E+000	1.50998E-001	0.00000E+000	9	...........	1467.43
	1153	23.08	1.47005E-001	-2.55305E-006	0.00000E+000	1.46999E-001	0.00000E+000	9	...........	1467.43
	1157	23.16	1.42996E-001	-2.64722E-006	0.00000E+000	1.43001E-001	0.00000E+000	9	...........	1467.43
	1161	23.24	1.38996E-001	-2.74612E-006	0.00000E+000	1.39002E-001	0.00000E+000	9	...........	1467.43
	1165	23.32	1.35006E-001	-2.83912E-006	0.00000E+000	1.35003E-001	0.00000E+000	9	...........	1467.45
	1169	23.4	1.31016E-001	-2.93418E-006	0.00000E+000	1.31005E-001	0.00000E+000	9	...........	1467.61
	1173	23.48	1.26997E-001	-3.02691E-006	0.00000E+000	1.27006E-001	0.00000E+000	9	...........	1467.61
	1177	23.56	1.22985E-001	-3.12962E-006	0.00000E+000	1.22995E-001	0.00000E+000	9	...........	1467.61
	1181	23.64	1.18998E-001	-3.22518E-006	0.00000E+000	1.18996E-001	0.00000E+000	9	...........	1467.61
	1185	23.72	1.15003E-001	-3.32352E-006	0.00000E+000	1.14998E-001	0.00000E+000	9	...........	1467.61
	1189	23.8	1.10995E-001	-3.43349E-006	0.00000E+000	1.10999E-001	0.00000E+000	9	...........	1467.61
	1193	23.88	1.07007E-001	-3.54132E-006	0.00000E+000	1.07001E-001	0.00000E+000	9	...........	1467.61
	1197	23.96	1.03015E-001	-3.63727E-006	0.00000E+000	1.03002E-001	0.00000E+000	9	...........	1467.61
	1200	24.02	1.00007E-001	-3.72029E-006	0.00000E+000	1.00003E-001	0.00000E+000	9	...........	1467.61
CURVE4	TABLE
	Pt	T	Vf	Im	Vu	Sig	Ach	IERange	Over	Temp
	#	s	V vs. Ref.	A	V	V	V	#	bits	deg C
	1201	24.04	9.99980E-002	-2.93454E-006	0.00000E+000	1.00003E-001	0.00000E+000	9	...........	1467.61