File: input/ECSA_test/CV_ECSA_#2_#8.DTA
EXPLAIN
TAG	CV
TITLE	LABEL	ECSA	Test Identifier
DATE	LABEL	2/13/2024	Date
TIME	LABEL	12:05:26	Time
NOTES	NOTES	1	Notes...

PSTAT	PSTAT	IFC1010-36068	Potentiostat
VINIT	POTEN	1.00000E-001	F	Initial E (V)
VLIMIT1	POTEN	3.00000E-001	F	Scan Limit 1 (V)
VLIMIT2	POTEN	1.00000E-001	F	Scan Limit 2 (V)
VFINAL	POTEN	1.00000E-001	F	Final E (V)
SCANRATE	QUANT	8.00115E+001	A Real Number
STEPSIZE	QUANT	1.00000E+000	Step Size (mV)
CYCLES	IQUANT	3	Cycles (#)
IMODE	SELECTOR	1	I/E Range Mode
IRANGE	QUANT	3.00000E-001	Max Current (mA)
AREA	QUANT	1.00000E+000	Sample Area (cm^2)
EQDELAY	QUANT	0.00000E+000	Equil. Time (s)
IRCOMP	SELECTOR	0	IRComp
PFCOR	QUANT	5.00000E+001	PF Corr. (ohm)
SAMPLINGMODE	SELECTOR	2	Sampling Mode
EOC	QUANT	0.3246219	Open Circuit (V)
ELECTRODETYPE	SELECTOR	0	Electrode Type
STRIPPING	TOGGLE	F	Used for Stripping
SEQUENCER	TOGGLE	TRUE	Run as Sequence
PSTATMODEL	IQUANT	64	Pstat Model
PSTATSECTION	LABEL	IFC1010-36068	Pstat Section
PSTATSERIALNO	LABEL	36068	Pstat Serial Number
CTRLMODE	IQUANT	1	Control Mode
ELECTROMETER	IQUANT	0	RE=0 or CS=1
IESTAB	IQUANT	2	I/E Stability
CASPEED	IQUANT	4	Control Amp Speed
CONVENTION	IQUANT	1	Current Convention
ICHRANGE	IQUANT	2	Ich Range
ICHRANGEMODE	TOGGLE	F	Ich Auto Range
ICHOFFSETENABLE	TOGGLE	F	Ich Offset Enable
ICHOFFSET	QUANT	0	Ich Offset (V)
ICHFILTER	IQUANT	3	Ich Filter
VCHRANGE	IQUANT	2	Vch Range
VCHRANGEMODE	TOGGLE	F	Vch Auto Range
VCHOFFSETENABLE	TOGGLE	F	Vch Offset Enable
VCHOFFSET	QUANT	0	Vch Offset (V)
VCHFILTER	IQUANT	3	Vch Filter
IERANGELOWERLIMIT	IQUANT	4	I/E Range Lower Limit
IERANGEMODE	TOGGLE	F	I/E AutoRange
IERANGE	IQUANT	9	I/E Range
ACHSELECT	IQUANT	0	Ach Select
ACHRANGE	IQUANT	2	Ach Range
ACHOFFSETENABLE	TOGGLE	F	Ach Offset Enable
ACHOFFSET	QUANT	0	Ach Offset (V)
ACHFILTER	IQUANT	1	Ach Filter
SENSECABLEID	IQUANT	13	Sense Cable ID
PWRCABLEID	IQUANT	13	Power Cable ID
DCCALDATE	LABEL	8/11/2023	DC Calibration Date
ACCALDATE	LABEL	6/2/2023	AC Calibration Date
FRAMEWORKVERSION	LABEL	7.10.3	Framework Version
INSTRUMENTVERSION	LABEL	4.91	Instrument Version
COMMVERSION	LABEL	3.10	Communications Version
CPUPLDVERSION	LABEL	2.22	CPU PLD Version
CTRLPLDVERSION	LABEL	0.00	CTRL PLD Version
PSTATPLDVERSION	LABEL	0.00	PSTAT PLD Version
CURVE1	TABLE
	Pt	T	Vf	Im	Vu	Sig	Ach	IERange	Over	Temp
	#	s	V vs. Ref.	A	V	V	V	#	bits	deg C
	0	0.0125	9.99906E-002	-3.13224E-006	0.00000E+000	1.00003E-001	0.00000E+000	9	...........	1467.52
	4	0.0625	1.03978E-001	-1.50081E-006	0.00000E+000	1.04002E-001	0.00000E+000	9	...........	1467.52
	8	0.1125	1.07963E-001	-1.12734E-006	0.00000E+000	1.08000E-001	0.00000E+000	9	...........	1467.52
	12	0.1625	1.11956E-001	-8.98854E-007	0.00000E+000	1.11999E-001	0.00000E+000	9	...........	1467.52
	16	0.2125	1.15977E-001	-6.26392E-007	0.00000E+000	1.15997E-001	0.00000E+000	9	...........	1467.52
	20	0.2625	1.19986E-001	-4.48032E-007	0.00000E+000	1.20009E-001	0.00000E+000	9	...........	1467.52
	24	0.3125	1.23966E-001	-2.15804E-007	0.00000E+000	1.24007E-001	0.00000E+000	9	...........	1467.52
	28	0.3625	1.27980E-001	-7.98629E-008	0.00000E+000	1.28006E-001	0.00000E+000	9	...........	1467.52
	32	0.4125	1.31987E-001	1.24116E-007	0.00000E+000	1.32004E-001	0.00000E+000	9	...........	1467.52
	36	0.4625	1.35968E-001	2.45221E-007	0.00000E+000	1.36003E-001	0.00000E+000	9	...........	1467.52
	40	0.5125	1.39953E-001	4.28437E-007	0.00000E+000	1.40002E-001	0.00000E+000	9	...........	1467.52
	44	0.5625	1.43958E-001	5.25391E-007	0.00000E+000	1.44000E-001	0.00000E+000	9	...........	1467.52
	48	0.6125	1.47968E-001	6.99250E-007	0.00000E+000	1.48011E-001	0.00000E+000	9	...........	1467.52
	52	0.6625	1.51949E-001	7.82482E-007	0.00000E+000	1.52010E-001	0.00000E+000	9	...........	1467.52
	56	0.7125	1.55977E-001	9.46672E-007	0.00000E+000	1.56009E-001	0.00000E+000	9	...........	1467.52
	60	0.7625	1.59969E-001	1.03039E-006	0.00000E+000	1.60007E-001	0.00000E+000	9	...........	1467.52
	64	0.8125	1.63969E-001	1.18010E-006	0.00000E+000	1.64006E-001	0.00000E+000	9	...........	1467.52
	68	0.8625	1.67976E-001	1.26191E-006	0.00000E+000	1.68004E-001	0.00000E+000	9	...........	1467.52
	72	0.9125	1.71977E-001	1.39304E-006	0.00000E+000	1.72015E-001	0.00000E+000	9	...........	1467.52
	76	0.9625	1.75989E-001	1.47159E-006	0.00000E+000	1.76014E-001	0.00000E+000	9	...........	1467.52
	80	1.0125	1.79981E-001	1.61074E-006	0.00000E+000	1.80013E-001	0.00000E+000	9	...........	1467.52
	84	1.0625	1.83987E-001	1.67383E-006	0.00000E+000	1.84011E-001	0.00000E+000	9	...........	1467.52
	88	1.1125	1.87984E-001	1.80309E-006	0.00000E+000	1.88010E-001	0.00000E+000	9	...........	1467.52
	92	1.1625	1.92002E-001	1.86578E-006	0.00000E+000	1.92008E-001	0.00000E+000	9	...........	1467.52
	96	1.2125	1.96001E-001	1.99246E-006	0.00000E+000	1.96020E-001	0.00000E+000	9	...........	1467.52
	100	1.2625	1.99990E-001	2.05363E-006	0.00000E+000	2.00018E-001	0.00000E+000	9	...........	1467.52
	104	1.3125	2.03976E-001	2.18124E-006	0.00000E+000	2.04017E-001	0.00000E+000	9	...........	1467.52
	108	1.3625	2.07971E-001	2.23979E-006	0.00000E+000	2.08015E-001	0.00000E+000	9	...........	1467.52
	112	1.4125	2.11973E-001	2.35929E-006	0.00000E+000	2.12014E-001	0.00000E+000	9	...........	1467.52
	116	1.4625	2.15963E-001	2.41908E-006	0.00000E+000	2.16013E-001	0.00000E+000	9	...........	1467.52
	120	1.5125	2.19973E-001	2.53448E-006	0.00000E+000	2.20011E-001	0.00000E+000	9	...........	1467.52
	124	1.5625	2.23987E-001	2.59294E-006	0.00000E+000	2.24022E-001	0.00000E+000	9	...........	1467.52
	128	1.6125	2.27975E-001	2.70754E-006	0.00000E+000	2.28021E-001	0.00000E+000	9	...........	1467.52
	132	1.6625	2.31990E-001	2.76952E-006	0.00000E+000	2.32019E-001	0.00000E+000	9	...........	1467.52
	136	1.7125	2.35967E-001	2.86532E-006	0.00000E+000	2.36018E-001	0.00000E+000	9	...........	1467.52
	140	1.7625	2.39975E-001	2.93246E-006	0.00000E+000	2.40017E-001	0.00000E+000	9	...........	1467.52
	144	1.8125	2.43988E-001	3.03824E-006	0.00000E+000	2.44015E-001	0.00000E+000	9	...........	1467.52
	148	1.8625	2.47987E-001	3.10623E-006	0.00000E+000	2.48026E-001	0.00000E+000	9	...........	1467.52
	152	1.9125	2.51973E-001	3.20684E-006	0.00000E+000	2.52025E-001	0.00000E+000	9	...........	1467.52
	156	1.9625	2.55972E-001	3.27715E-006	0.00000E+000	2.56024E-001	0.00000E+000	9	...........	1467.52
	160	2.0125	2.59968E-001	3.38627E-006	0.00000E+000	2.60022E-001	0.00000E+000	9	...........	1467.52
	164	2.0625	2.63975E-001	3.46201E-006	0.00000E+000	2.64021E-001	0.00000E+000	9	...........	1467.52
	168	2.1125	2.67964E-001	3.56614E-006	0.00000E+000	2.68019E-001	0.00000E+000	9	...........	1467.52
	172	2.1625	2.71987E-001	3.64576E-006	0.00000E+000	2.72031E-001	0.00000E+000	9	...........	1467.52
	176	2.2125	2.75988E-001	3.74784E-006	0.00000E+000	2.76029E-001	0.00000E+000	9	...........	1467.52
	180	2.2625	2.79976E-001	3.83344E-006	0.00000E+000	2.80028E-001	0.00000E+000	9	...........	1467.52
	184	2.3125	2.84004E-001	3.94594E-006	0.00000E+000	2.84026E-001	0.00000E+000	9	...........	1467.52
	188	2.3625	2.87998E-001	4.03305E-006	0.00000E+000	2.88025E-001	0.00000E+000	9	...........	1467.52
	192	2.4125	2.91983E-001	4.15629E-006	0.00000E+000	2.92024E-001	0.00000E+000	9	...........	1467.52
	196	2.4625	2.96003E-001	4.24287E-006	0.00000E+000	2.96022E-001	0.00000E+000	9	...........	1467.52
	200	2.5125	3.00001E-001	4.36745E-006	0.00000E+000	3.00033E-001	0.00000E+000	9	...........	1467.52
	204	2.5625	2.96035E-001	1.36319E-006	0.00000E+000	2.96022E-001	0.00000E+000	9	...........	1467.52
	208	2.6125	2.92014E-001	9.88109E-007	0.00000E+000	2.92024E-001	0.00000E+000	9	...........	1467.52
	212	2.6625	2.88036E-001	6.99785E-007	0.00000E+000	2.88025E-001	0.00000E+000	9	...........	1467.52
	216	2.7125	2.84026E-001	4.74641E-007	0.00000E+000	2.84026E-001	0.00000E+000	9	...........	1467.52
	220	2.7625	2.80003E-001	2.66251E-007	0.00000E+000	2.80028E-001	0.00000E+000	9	...........	1467.52
	224	2.8125	2.76016E-001	9.93429E-008	0.00000E+000	2.76029E-001	0.00000E+000	9	...........	1467.52
	228	2.8625	2.72018E-001	-5.78075E-008	0.00000E+000	2.72031E-001	0.00000E+000	9	...........	1467.61
	232	2.9125	2.67990E-001	-1.94729E-007	0.00000E+000	2.68019E-001	0.00000E+000	9	...........	1467.61
	236	2.9625	2.64001E-001	-3.32186E-007	0.00000E+000	2.64021E-001	0.00000E+000	9	...........	1467.61
	240	3.0125	2.60007E-001	-4.50750E-007	0.00000E+000	2.60022E-001	0.00000E+000	9	...........	1467.61
	244	3.0625	2.56011E-001	-5.71587E-007	0.00000E+000	2.56024E-001	0.00000E+000	9	...........	1467.61
	248	3.1125	2.52013E-001	-6.76339E-007	0.00000E+000	2.52025E-001	0.00000E+000	9	...........	1467.61
	252	3.1625	2.48026E-001	-8.00384E-007	0.00000E+000	2.48026E-001	0.00000E+000	9	...........	1467.61
	256	3.2125	2.44024E-001	-9.03800E-007	0.00000E+000	2.44015E-001	0.00000E+000	9	...........	1467.61
	260	3.2625	2.40012E-001	-1.01372E-006	0.00000E+000	2.40017E-001	0.00000E+000	9	...........	1467.61
	264	3.3125	2.36004E-001	-1.11504E-006	0.00000E+000	2.36018E-001	0.00000E+000	9	...........	1467.61
	268	3.3625	2.32024E-001	-1.21543E-006	0.00000E+000	2.32019E-001	0.00000E+000	9	...........	1467.61
	272	3.4125	2.28012E-001	-1.30975E-006	0.00000E+000	2.28021E-001	0.00000E+000	9	...........	1467.61
	276	3.4625	2.24022E-001	-1.40649E-006	0.00000E+000	2.24022E-001	0.00000E+000	9	...........	1467.61
	280	3.5125	2.20004E-001	-1.52122E-006	0.00000E+000	2.20011E-001	0.00000E+000	9	...........	1467.61
	284	3.5625	2.15996E-001	-1.60285E-006	0.00000E+000	2.16013E-001	0.00000E+000	9	...........	1467.61
	288	3.6125	2.12009E-001	-1.70546E-006	0.00000E+000	2.12014E-001	0.00000E+000	9	...........	1467.61
	292	3.6625	2.08017E-001	-1.78660E-006	0.00000E+000	2.08015E-001	0.00000E+000	9	...........	1467.61
	296	3.7125	2.04023E-001	-1.89598E-006	0.00000E+000	2.04017E-001	0.00000E+000	9	...........	1467.61
	300	3.7625	2.00031E-001	-1.99013E-006	0.00000E+000	2.00018E-001	0.00000E+000	9	...........	1467.61
	304	3.8125	1.96027E-001	-2.10700E-006	0.00000E+000	1.96020E-001	0.00000E+000	9	...........	1467.61
	308	3.8625	1.92031E-001	-2.18970E-006	0.00000E+000	1.92008E-001	0.00000E+000	9	...........	1467.52
	312	3.9125	1.88012E-001	-2.31557E-006	0.00000E+000	1.88010E-001	0.00000E+000	9	...........	1467.52
	316	3.9625	1.84012E-001	-2.39876E-006	0.00000E+000	1.84011E-001	0.00000E+000	9	...........	1467.52
	320	4.0125	1.80012E-001	-2.51647E-006	0.00000E+000	1.80013E-001	0.00000E+000	9	...........	1467.52
	324	4.0625	1.76016E-001	-2.60184E-006	0.00000E+000	1.76014E-001	0.00000E+000	9	...........	1467.52
	328	4.1125	1.72020E-001	-2.72852E-006	0.00000E+000	1.72015E-001	0.00000E+000	9	...........	1467.52
	332	4.1625	1.68016E-001	-2.81527E-006	0.00000E+000	1.68004E-001	0.00000E+000	9	...........	1467.52
	336	4.2125	1.64004E-001	-2.93829E-006	0.00000E+000	1.64006E-001	0.00000E+000	9	...........	1467.52
	340	4.2625	1.60008E-001	-3.02803E-006	0.00000E+000	1.60007E-001	0.00000E+000	9	...........	1467.52
	344	4.3125	1.56016E-001	-3.16227E-006	0.00000E+000	1.56009E-001	0.00000E+000	9	...........	1467.52
	348	4.3625	1.51998E-001	-3.24747E-006	0.00000E+000	1.52010E-001	0.00000E+000	9	...........	1467.52
	352	4.4125	1.48026E-001	-3.37659E-006	0.00000E+000	1.48011E-001	0.00000E+000	9	...........	1467.52
	356	4.4625	1.44012E-001	-3.48010E-006	0.00000E+000	1.44000E-001	0.00000E+000	9	...........	1467.52
	360	4.5125	1.39985E-001	-3.59630E-006	0.00000E+000	1.40002E-001	0.00000E+000	9	...........	1467.52
	364	4.5625	1.36004E-001	-3.68372E-006	0.00000E+000	1.36003E-001	0.00000E+000	9	...........	1467.52
	368	4.6125	1.32022E-001	-3.81445E-006	0.00000E+000	1.32004E-001	0.00000E+000	9	...........	1467.52
	372	4.6625	1.28017E-001	-3.90307E-006	0.00000E+000	1.28006E-001	0.00000E+000	9	...........	1467.52
	376	4.7125	1.23998E-001	-4.03540E-006	0.00000E+000	1.24007E-001	0.00000E+000	9	...........	1467.52
	380	4.7625	1.20015E-001	-4.12135E-006	0.00000E+000	1.20009E-001	0.00000E+000	9	...........	1467.52
	384	4.8125	1.16006E-001	-4.26843E-006	0.00000E+000	1.15997E-001	0.00000E+000	9	...........	1467.52
	388	4.8625	1.11988E-001	-4.35732E-006	0.00000E+000	1.11999E-001	0.00000E+000	9	...........	1467.52
	392	4.9125	1.07995E-001	-4.49558E-006	0.00000E+000	1.08000E-001	0.00000E+000	9	...........	1467.52
	396	4.9625	1.04006E-001	-4.58884E-006	0.00000E+000	1.04002E-001	0.00000E+000	9	...........	1467.52
	400	5.0125	1.00005E-001	-4.73757E-006	0.00000E+000	1.00003E-001	0.00000E+000	9	...........	1467.52
CURVE2	TABLE
	Pt	T	Vf	Im	Vu	Sig	Ach	IERange	Over	Temp
	#	s	V vs. Ref.	A	V	V	V	#	bits	deg C
	401	5.025	1.00969E-001	-2.30265E-006	0.00000E+000	1.01003E-001	0.00000E+000	9	...........	1467.52
	405	5.075	1.04967E-001	-1.69944E-006	0.00000E+000	1.05001E-001	0.00000E+000	9	...........	1467.52
	409	5.125	1.08987E-001	-1.28609E-006	0.00000E+000	1.09000E-001	0.00000E+000	9	...........	1467.52
	413	5.175	1.12951E-001	-1.03390E-006	0.00000E+000	1.12999E-001	0.00000E+000	9	...........	1467.52
	417	5.225	1.16970E-001	-7.40723E-007	0.00000E+000	1.16997E-001	0.00000E+000	9	...........	1467.52
	421	5.275	1.20976E-001	-5.54745E-007	0.00000E+000	1.21008E-001	0.00000E+000	9	...........	1467.52
	425	5.325	1.24970E-001	-3.08214E-007	0.00000E+000	1.25007E-001	0.00000E+000	9	...........	1467.52
	429	5.375	1.28974E-001	-1.55431E-007	0.00000E+000	1.29005E-001	0.00000E+000	9	...........	1467.52
	433	5.425	1.32973E-001	5.22023E-008	0.00000E+000	1.33004E-001	0.00000E+000	9	...........	1467.52
	437	5.475	1.36966E-001	1.75713E-007	0.00000E+000	1.37003E-001	0.00000E+000	9	...........	1467.52
	441	5.525	1.40981E-001	3.60132E-007	0.00000E+000	1.41001E-001	0.00000E+000	9	...........	1467.52
	445	5.575	1.44976E-001	4.83375E-007	0.00000E+000	1.45012E-001	0.00000E+000	9	...........	1467.52
	449	5.625	1.48977E-001	6.34465E-007	0.00000E+000	1.49011E-001	0.00000E+000	9	...........	1467.52
	453	5.675	1.52962E-001	7.40955E-007	0.00000E+000	1.53010E-001	0.00000E+000	9	...........	1467.52
	457	5.725	1.56983E-001	9.01358E-007	0.00000E+000	1.57008E-001	0.00000E+000	9	...........	1467.52
	461	5.775	1.60975E-001	9.96887E-007	0.00000E+000	1.61007E-001	0.00000E+000	9	...........	1467.52
	465	5.825	1.64955E-001	1.14539E-006	0.00000E+000	1.65005E-001	0.00000E+000	9	...........	1467.52
	469	5.875	1.68979E-001	1.22577E-006	0.00000E+000	1.69004E-001	0.00000E+000	9	...........	1467.52
	473	5.925	1.72987E-001	1.36849E-006	0.00000E+000	1.73015E-001	0.00000E+000	9	...........	1467.52
	477	5.975	1.76968E-001	1.44022E-006	0.00000E+000	1.77014E-001	0.00000E+000	9	...........	1467.52
	481	6.025	1.80979E-001	1.57844E-006	0.00000E+000	1.81012E-001	0.00000E+000	9	...........	1467.52
	485	6.075	1.84968E-001	1.65182E-006	0.00000E+000	1.85011E-001	0.00000E+000	9	...........	1467.52
	489	6.125	1.88963E-001	1.78237E-006	0.00000E+000	1.89010E-001	0.00000E+000	9	...........	1467.52
	493	6.175	1.92988E-001	1.84992E-006	0.00000E+000	1.93008E-001	0.00000E+000	9	...........	1467.52
	497	6.225	1.96981E-001	1.97432E-006	0.00000E+000	1.97019E-001	0.00000E+000	9	...........	1467.52
	501	6.275	2.00983E-001	2.03461E-006	0.00000E+000	2.01018E-001	0.00000E+000	9	...........	1467.52
	505	6.325	2.04983E-001	2.16021E-006	0.00000E+000	2.05016E-001	0.00000E+000	9	...........	1467.52
	509	6.375	2.08964E-001	2.21804E-006	0.00000E+000	2.09015E-001	0.00000E+000	9	...........	1467.52
	513	6.425	2.12954E-001	2.33599E-006	0.00000E+000	2.13014E-001	0.00000E+000	9	...........	1467.52
	517	6.475	2.16954E-001	2.39970E-006	0.00000E+000	2.17012E-001	0.00000E+000	9	...........	1467.52
	521	6.525	2.20984E-001	2.53034E-006	0.00000E+000	2.21023E-001	0.00000E+000	9	...........	1467.52
	525	6.575	2.24977E-001	2.58724E-006	0.00000E+000	2.25022E-001	0.00000E+000	9	...........	1467.52
	529	6.625	2.28970E-001	2.69092E-006	0.00000E+000	2.29021E-001	0.00000E+000	9	...........	1467.52
	533	6.675	2.32979E-001	2.75441E-006	0.00000E+000	2.33019E-001	0.00000E+000	9	...........	1467.52
	537	6.725	2.36978E-001	2.86202E-006	0.00000E+000	2.37018E-001	0.00000E+000	9	...........	1467.52
	541	6.775	2.40971E-001	2.92573E-006	0.00000E+000	2.41016E-001	0.00000E+000	9	...........	1467.52
	545	6.825	2.44988E-001	3.02349E-006	0.00000E+000	2.45015E-001	0.00000E+000	9	...........	1467.51
	549	6.875	2.48978E-001	3.10191E-006	0.00000E+000	2.49026E-001	0.00000E+000	9	...........	1467.43
	553	6.925	2.52968E-001	3.20617E-006	0.00000E+000	2.53025E-001	0.00000E+000	9	...........	1467.43
	557	6.975	2.56990E-001	3.27461E-006	0.00000E+000	2.57023E-001	0.00000E+000	9	...........	1467.43
	561	7.025	2.60977E-001	3.38025E-006	0.00000E+000	2.61022E-001	0.00000E+000	9	...........	1467.43
	565	7.075	2.64969E-001	3.46095E-006	0.00000E+000	2.65020E-001	0.00000E+000	9	...........	1467.43
	569	7.125	2.68991E-001	3.56115E-006	0.00000E+000	2.69019E-001	0.00000E+000	9	...........	1467.43
	573	7.175	2.72982E-001	3.64167E-006	0.00000E+000	2.73030E-001	0.00000E+000	9	...........	1467.43
	577	7.225	2.76979E-001	3.74954E-006	0.00000E+000	2.77029E-001	0.00000E+000	9	...........	1467.43
	581	7.275	2.80973E-001	3.84239E-006	0.00000E+000	2.81027E-001	0.00000E+000	9	...........	1467.43
	585	7.325	2.84995E-001	3.95227E-006	0.00000E+000	2.85026E-001	0.00000E+000	9	...........	1467.43
	589	7.375	2.88990E-001	4.04205E-006	0.00000E+000	2.89025E-001	0.00000E+000	9	...........	1467.43
	593	7.425	2.92983E-001	4.15607E-006	0.00000E+000	2.93023E-001	0.00000E+000	9	...........	1467.43
	597	7.475	2.96997E-001	4.28176E-006	0.00000E+000	2.97034E-001	0.00000E+000	9	...........	1467.43
[...]
	797	9.975	1.03020E-001	-4.64297E-006	0.00000E+000	1.03002E-001	0.00000E+000	9	...........	1467.52
	800	10.0125	1.00012E-001	-4.74492E-006	0.00000E+000	1.00003E-001	0.00000E+000	9	...........	1467.52
CURVE3	TABLE
	Pt	T	Vf	Im	Vu	Sig	Ach	IERange	Over	Temp
	#	s	V vs. Ref.	A	V	V	V	#	bits	deg C
	801	10.025	1.00967E-001	-2.34649E-006	0.00000E+000	1.01003E-001	0.00000E+000	9	...........	1467.52
	806	10.0875	1.05959E-001	-1.60565E-006	0.00000E+000	1.06001E-001	0.00000E+000	9	...........	1467.52
	811	10.15	1.10957E-001	-1.18406E-006	0.00000E+000	1.10999E-001	0.00000E+000	9	...........	1467.52
	816	10.2125	1.15977E-001	-8.35629E-007	0.00000E+000	1.15997E-001	0.00000E+000	9	...........	1467.52
	821	10.275	1.20975E-001	-5.33091E-007	0.00000E+000	1.21008E-001	0.00000E+000	9	...........	1467.52
	826	10.3375	1.25971E-001	-2.75867E-007	0.00000E+000	1.26006E-001	0.00000E+000	9	...........	1467.52
	831	10.4	1.30987E-001	-5.46440E-008	0.00000E+000	1.31005E-001	0.00000E+000	9	...........	1467.52
	836	10.4625	1.35967E-001	1.42117E-007	0.00000E+000	1.36003E-001	0.00000E+000	9	...........	1467.52
	841	10.525	1.40985E-001	3.20877E-007	0.00000E+000	1.41001E-001	0.00000E+000	9	...........	1467.52
	846	10.5875	1.45975E-001	4.93801E-007	0.00000E+000	1.46012E-001	0.00000E+000	9	...........	1467.52
	851	10.65	1.50975E-001	6.61466E-007	0.00000E+000	1.51010E-001	0.00000E+000	9	...........	1467.52
	856	10.7125	1.55989E-001	8.30335E-007	0.00000E+000	1.56009E-001	0.00000E+000	9	...........	1467.52
	861	10.775	1.60971E-001	1.00321E-006	0.00000E+000	1.61007E-001	0.00000E+000	9	...........	1467.52
	866	10.8375	1.65939E-001	1.16224E-006	0.00000E+000	1.66005E-001	0.00000E+000	9	...........	1467.52
	871	10.9	1.70978E-001	1.30090E-006	0.00000E+000	1.71016E-001	0.00000E+000	9	...........	1467.52
	876	10.9625	1.75981E-001	1.42106E-006	0.00000E+000	1.76014E-001	0.00000E+000	9	...........	1467.52
	881	11.025	1.80993E-001	1.53856E-006	0.00000E+000	1.81012E-001	0.00000E+000	9	...........	1467.52
	886	11.0875	1.85980E-001	1.66260E-006	0.00000E+000	1.86011E-001	0.00000E+000	9	...........	1467.52
	891	11.15	1.90960E-001	1.78754E-006	0.00000E+000	1.91009E-001	0.00000E+000	9	...........	1467.52
	896	11.2125	1.95982E-001	1.92157E-006	0.00000E+000	1.96020E-001	0.00000E+000	9	...........	1467.52
	901	11.275	2.00989E-001	2.05145E-006	0.00000E+000	2.01018E-001	0.00000E+000	9	...........	1467.52
	906	11.3375	2.05989E-001	2.17594E-006	0.00000E+000	2.06016E-001	0.00000E+000	9	...........	1467.52
	911	11.4	2.10970E-001	2.28350E-006	0.00000E+000	2.11014E-001	0.00000E+000	9	...........	1467.52
	916	11.4625	2.15953E-001	2.37399E-006	0.00000E+000	2.16013E-001	0.00000E+000	9	...........	1467.52
	921	11.525	2.20980E-001	2.49207E-006	0.00000E+000	2.21023E-001	0.00000E+000	9	...........	1467.52
	926	11.5875	2.25974E-001	2.58252E-006	0.00000E+000	2.26022E-001	0.00000E+000	9	...........	1467.52
	931	11.65	2.30983E-001	2.69186E-006	0.00000E+000	2.31020E-001	0.00000E+000	9	...........	1467.52
	936	11.7125	2.35967E-001	2.81122E-006	0.00000E+000	2.36018E-001	0.00000E+000	9	...........	1467.52
	941	11.775	2.40972E-001	2.93536E-006	0.00000E+000	2.41016E-001	0.00000E+000	9	...........	1467.52
	946	11.8375	2.45983E-001	3.06052E-006	0.00000E+000	2.46027E-001	0.00000E+000	9	...........	1467.52
	951	11.9	2.50981E-001	3.14999E-006	0.00000E+000	2.51025E-001	0.00000E+000	9	...........	1467.52
	956	11.9625	2.55968E-001	3.24208E-006	0.00000E+000	2.56024E-001	0.00000E+000	9	...........	1467.52
	961	12.025	2.60968E-001	3.33539E-006	0.00000E+000	2.61022E-001	0.00000E+000	9	...........	1467.52
	966	12.0875	2.65977E-001	3.44856E-006	0.00000E+000	2.66020E-001	0.00000E+000	9	...........	1467.52
	971	12.15	2.70997E-001	3.57973E-006	0.00000E+000	2.71031E-001	0.00000E+000	9	...........	1467.52
	976	12.2125	2.75989E-001	3.69175E-006	0.00000E+000	2.76029E-001	0.00000E+000	9	...........	1467.52
	981	12.275	2.80973E-001	3.84694E-006	0.00000E+000	2.81027E-001	0.00000E+000	9	...........	1467.52
	986	12.3375	2.85992E-001	3.97726E-006	0.00000E+000	2.86026E-001	0.00000E+000	9	...........	1467.52
	991	12.4	2.90966E-001	4.09400E-006	0.00000E+000	2.91024E-001	0.00000E+000	9	...........	1467.52
	996	12.4625	2.95994E-001	4.21234E-006	0.00000E+000	2.96022E-001	0.00000E+000	9	...........	1467.52
	1001	12.525	2.99036E-001	1.89354E-006	0.00000E+000	2.99034E-001	0.00000E+000	9	...........	1467.52
	1006	12.5875	2.94010E-001	1.10904E-006	0.00000E+000	2.94023E-001	0.00000E+000	9	...........	1467.52
	1011	12.65	2.89032E-001	7.28301E-007	0.00000E+000	2.89025E-001	0.00000E+000	9	...........	1467.52
	1016	12.7125	2.84038E-001	4.36501E-007	0.00000E+000	2.84026E-001	0.00000E+000	9	...........	1467.52
	1021	12.775	2.79013E-001	2.06011E-007	0.00000E+000	2.79028E-001	0.00000E+000	9	...........	1467.52
	1026	12.8375	2.74010E-001	-1.96075E-010	0.00000E+000	2.74030E-001	0.00000E+000	9	...........	1467.61
	1031	12.9	2.69036E-001	-1.91833E-007	0.00000E+000	2.69019E-001	0.00000E+000	9	...........	1467.61
	1036	12.9625	2.64007E-001	-3.73445E-007	0.00000E+000	2.64021E-001	0.00000E+000	9	...........	1467.61
	1041	13.025	2.59015E-001	-5.43918E-007	0.00000E+000	2.59023E-001	0.00000E+000	9	...........	1467.61
	1046	13.0875	2.53999E-001	-6.95276E-007	0.00000E+000	2.54024E-001	0.00000E+000	9	...........	1467.61
	1051	13.15	2.49018E-001	-8.28143E-007	0.00000E+000	2.49026E-001	0.00000E+000	9	...........	1467.61
	1056	13.2125	2.44029E-001	-9.51431E-007	0.00000E+000	2.44015E-001	0.00000E+000	9	...........	1467.61
	1061	13.275	2.39012E-001	-1.06817E-006	0.00000E+000	2.39017E-001	0.00000E+000	9	...........	1467.61
	1066	13.3375	2.34021E-001	-1.19297E-006	0.00000E+000	2.34019E-001	0.00000E+000	9	...........	1467.61
	1071	13.4	2.29011E-001	-1.32495E-006	0.00000E+000	2.29021E-001	0.00000E+000	9	...........	1467.61
	1076	13.4625	2.24018E-001	-1.46664E-006	0.00000E+000	2.24022E-001	0.00000E+000	9	...........	1467.61
	1081	13.525	2.19005E-001	-1.59714E-006	0.00000E+000	2.19012E-001	0.00000E+000	9	...........	1467.61
	1086	13.5875	2.13995E-001	-1.71691E-006	0.00000E+000	2.14013E-001	0.00000E+000	9	...........	1467.61
	1091	13.65	2.09006E-001	-1.82469E-006	0.00000E+000	2.09015E-001	0.00000E+000	9	...........	1467.61
	1096	13.7125	2.04014E-001	-1.94580E-006	0.00000E+000	2.04017E-001	0.00000E+000	9	...........	1467.61
	1101	13.775	1.99028E-001	-2.04890E-006	0.00000E+000	1.99019E-001	0.00000E+000	9	...........	1467.61
	1106	13.8375	1.94015E-001	-2.19050E-006	0.00000E+000	1.94008E-001	0.00000E+000	9	...........	1467.52
	1111	13.9	1.89001E-001	-2.30715E-006	0.00000E+000	1.89010E-001	0.00000E+000	9	...........	1467.52
	1116	13.9625	1.84011E-001	-2.45423E-006	0.00000E+000	1.84011E-001	0.00000E+000	9	...........	1467.52
	1121	14.025	1.78998E-001	-2.58799E-006	0.00000E+000	1.79013E-001	0.00000E+000	9	...........	1467.52
	1126	14.0875	1.74012E-001	-2.72299E-006	0.00000E+000	1.74015E-001	0.00000E+000	9	...........	1467.52
	1131	14.15	1.69011E-001	-2.86277E-006	0.00000E+000	1.69004E-001	0.00000E+000	9	...........	1467.52
	1136	14.2125	1.64000E-001	-2.97180E-006	0.00000E+000	1.64006E-001	0.00000E+000	9	...........	1467.52
	1141	14.275	1.58994E-001	-3.09241E-006	0.00000E+000	1.59007E-001	0.00000E+000	9	...........	1467.52
	1146	14.3375	1.54010E-001	-3.23392E-006	0.00000E+000	1.54009E-001	0.00000E+000	9	...........	1467.52
	1151	14.4	1.49009E-001	-3.38310E-006	0.00000E+000	1.49011E-001	0.00000E+000	9	...........	1467.52
	1156	14.4625	1.44003E-001	-3.53753E-006	0.00000E+000	1.44000E-001	0.00000E+000	9	...........	1467.52
	1161	14.525	1.38997E-001	-3.68064E-006	0.00000E+000	1.39002E-001	0.00000E+000	9	...........	1467.52
	1166	14.5875	1.34003E-001	-3.82100E-006	0.00000E+000	1.34004E-001	0.00000E+000	9	...........	1467.52
	1171	14.65	1.29012E-001	-3.95057E-006	0.00000E+000	1.29005E-001	0.00000E+000	9	...........	1467.52
	1176	14.7125	1.24005E-001	-4.07982E-006	0.00000E+000	1.24007E-001	0.00000E+000	9	...........	1467.52
	1181	14.775	1.19022E-001	-4.20173E-006	0.00000E+000	1.19009E-001	0.00000E+000	9	...........	1467.52
	1186	14.8375	1.13984E-001	-4.34569E-006	0.00000E+000	1.13998E-001	0.00000E+000	9	...........	1467.52
	1191	14.9	1.09019E-001	-4.49928E-006	0.00000E+000	1.09000E-001	0.00000E+000	9	...........	1467.52
	1196	14.9625	1.04015E-001	-4.66093E-006	0.00000E+000	1.04002E-001	0.00000E+000	9	...........	1467.52
	1200	15.0125	1.00008E-001	-4.77352E-006	0.00000E+000	1.00003E-001	0.00000E+000	9	...........	1467.52
CURVE4	TABLE
	Pt	T	Vf	Im	Vu	Sig	Ach	IERange	Over	Temp
	#	s	V vs. Ref.	A	V	V	V	#	bits	deg C
	1201	15.025	9.99876E-002	-3.60004E-006	0.00000E+000	1.00003E-001	0.00000E+000	9	...........	1467.52