File: input/ECSA_test/CV_ECSA_#2_#4.DTA
EXPLAIN
TAG	CV
TITLE	LABEL	ECSA	Test Identifier
DATE	LABEL	2/13/2024	Date
TIME	LABEL	12:03:54	Time
NOTES	NOTES	1	Notes...

PSTAT	PSTAT	IFC1010-36068	Potentiostat
VINIT	POTEN	1.00000E-001	F	Initial E (V)
VLIMIT1	POTEN	3.00000E-001	F	Scan Limit 1 (V)
VLIMIT2	POTEN	1.00000E-001	F	Scan Limit 2 (V)
VFINAL	POTEN	1.00000E-001	F	Final E (V)
SCANRATE	QUANT	3.99999E+001	A Real Number
STEPSIZE	QUANT	1.00000E+000	Step Size (mV)
CYCLES	IQUANT	3	Cycles (#)
IMODE	SELECTOR	1	I/E Range Mode
IRANGE	QUANT	3.00000E-001	Max Current (mA)
AREA	QUANT	1.00000E+000	Sample Area (cm^2)
EQDELAY	QUANT	0.00000E+000	Equil. Time (s)
IRCOMP	SELECTOR	0	IRComp
PFCOR	QUANT	5.00000E+001	PF Corr. (ohm)
SAMPLINGMODE	SELECTOR	2	Sampling Mode
EOC	QUANT	0.3246219	Open Circuit (V)
ELECTRODETYPE	SELECTOR	0	Electrode Type
STRIPPING	TOGGLE	F	Used for Stripping
SEQUENCER	TOGGLE	TRUE	Run as Sequence
PSTATMODEL	IQUANT	64	Pstat Model
PSTATSECTION	LABEL	IFC1010-36068	Pstat Section
PSTATSERIALNO	LABEL	36068	Pstat Serial Number
CTRLMODE	IQUANT	1	Control Mode
ELECTROMETER	IQUANT	0	RE=0 or CS=1
IESTAB	IQUANT	2	I/E Stability
CASPEED	IQUANT	4	Control Amp Speed
CONVENTION	IQUANT	1	Current Convention
ICHRANGE	IQUANT	2	Ich Range
ICHRANGEMODE	TOGGLE	F	Ich Auto Range
ICHOFFSETENABLE	TOGGLE	F	Ich Offset Enable
ICHOFFSET	QUANT	0	Ich Offset (V)
ICHFILTER	IQUANT	3	Ich Filter
VCHRANGE	IQUANT	2	Vch Range
VCHRANGEMODE	TOGGLE	F	Vch Auto Range
VCHOFFSETENABLE	TOGGLE	F	Vch Offset Enable
VCHOFFSET	QUANT	0	Vch Offset (V)
VCHFILTER	IQUANT	3	Vch Filter
IERANGELOWERLIMIT	IQUANT	4	I/E Range Lower Limit
IERANGEMODE	TOGGLE	F	I/E AutoRange
IERANGE	IQUANT	9	I/E Range
ACHSELECT	IQUANT	0	Ach Select
ACHRANGE	IQUANT	2	Ach Range
ACHOFFSETENABLE	TOGGLE	F	Ach Offset Enable
ACHOFFSET	QUANT	0	Ach Offset (V)
ACHFILTER	IQUANT	1	Ach Filter
SENSECABLEID	IQUANT	13	Sense Cable ID
PWRCABLEID	IQUANT	13	Power Cable ID
DCCALDATE	LABEL	8/11/2023	DC Calibration Date
ACCALDATE	LABEL	6/2/2023	AC Calibration Date
FRAMEWORKVERSION	LABEL	7.10.3	Framework Version
INSTRUMENTVERSION	LABEL	4.91	Instrument Version
COMMVERSION	LABEL	3.10	Communications Version
CPUPLDVERSION	LABEL	2.22	CPU PLD Version
CTRLPLDVERSION	LABEL	0.00	CTRL PLD Version
PSTATPLDVERSION	LABEL	0.00	PSTAT PLD Version
CURVE1	TABLE
	Pt	T	Vf	Im	Vu	Sig	Ach	IERange	Over	Temp
	#	s	V vs. Ref.	A	V	V	V	#	bits	deg C
	0	0.025	9.99889E-002	-2.21776E-006	0.00000E+000	1.00003E-001	0.00000E+000	9	...........	1467.52
	4	0.125	1.04003E-001	-1.22951E-006	0.00000E+000	1.04002E-001	0.00000E+000	9	...........	1467.52
	8	0.225	1.07987E-001	-9.89249E-007	0.00000E+000	1.08000E-001	0.00000E+000	9	...........	1467.52
	12	0.325	1.11975E-001	-7.90904E-007	0.00000E+000	1.11999E-001	0.00000E+000	9	...........	1467.52
	16	0.425	1.15980E-001	-6.22728E-007	0.00000E+000	1.15997E-001	0.00000E+000	9	...........	1467.52
	20	0.525	1.19978E-001	-4.65965E-007	0.00000E+000	1.19996E-001	0.00000E+000	9	...........	1467.88
	24	0.625	1.23966E-001	-3.22173E-007	0.00000E+000	1.23995E-001	0.00000E+000	9	...........	1467.88
	28	0.725	1.27995E-001	-1.83410E-007	0.00000E+000	1.28006E-001	0.00000E+000	9	...........	1467.88
	32	0.825	1.31998E-001	-6.68722E-008	0.00000E+000	1.32004E-001	0.00000E+000	9	...........	1467.88
	36	0.925	1.35978E-001	5.36032E-008	0.00000E+000	1.36003E-001	0.00000E+000	9	...........	1467.88
	40	1.025	1.39974E-001	1.64623E-007	0.00000E+000	1.40002E-001	0.00000E+000	9	...........	1467.88
	44	1.125	1.43987E-001	2.67589E-007	0.00000E+000	1.44000E-001	0.00000E+000	9	...........	1467.88
	48	1.225	1.47992E-001	3.68263E-007	0.00000E+000	1.47999E-001	0.00000E+000	9	...........	1467.88
	52	1.325	1.51970E-001	4.69894E-007	0.00000E+000	1.51997E-001	0.00000E+000	9	...........	1467.88
	56	1.425	1.55983E-001	5.72593E-007	0.00000E+000	1.55996E-001	0.00000E+000	9	...........	1467.88
	60	1.525	1.59971E-001	6.64479E-007	0.00000E+000	1.59995E-001	0.00000E+000	9	...........	1467.43
	64	1.625	1.63979E-001	7.61238E-007	0.00000E+000	1.64006E-001	0.00000E+000	9	...........	1467.43
	68	1.725	1.67999E-001	8.45292E-007	0.00000E+000	1.68004E-001	0.00000E+000	9	...........	1467.43
	72	1.825	1.71980E-001	9.33018E-007	0.00000E+000	1.72003E-001	0.00000E+000	9	...........	1467.43
	76	1.925	1.75978E-001	1.01965E-006	0.00000E+000	1.76002E-001	0.00000E+000	9	...........	1467.43
	80	2.025	1.79975E-001	1.09872E-006	0.00000E+000	1.80000E-001	0.00000E+000	9	...........	1467.43
	84	2.125	1.83979E-001	1.18371E-006	0.00000E+000	1.83999E-001	0.00000E+000	9	...........	1467.43
	88	2.225	1.87979E-001	1.26534E-006	0.00000E+000	1.87997E-001	0.00000E+000	9	...........	1467.43
	92	2.325	1.91993E-001	1.34057E-006	0.00000E+000	1.91996E-001	0.00000E+000	9	...........	1467.43
	96	2.425	1.95990E-001	1.42533E-006	0.00000E+000	1.95995E-001	0.00000E+000	9	...........	1467.43
	100	2.525	1.99995E-001	1.50098E-006	0.00000E+000	2.00006E-001	0.00000E+000	9	...........	1467.52
	104	2.625	2.03982E-001	1.57322E-006	0.00000E+000	2.04004E-001	0.00000E+000	9	...........	1467.52
	108	2.725	2.07983E-001	1.65195E-006	0.00000E+000	2.08003E-001	0.00000E+000	9	...........	1467.52
	112	2.825	2.11977E-001	1.72052E-006	0.00000E+000	2.12001E-001	0.00000E+000	9	...........	1467.52
	116	2.925	2.15969E-001	1.78484E-006	0.00000E+000	2.16000E-001	0.00000E+000	9	...........	1467.52
	120	3.025	2.19977E-001	1.86407E-006	0.00000E+000	2.19999E-001	0.00000E+000	9	...........	1467.52
	124	3.125	2.23975E-001	1.93894E-006	0.00000E+000	2.23997E-001	0.00000E+000	9	...........	1467.52
	128	3.225	2.27964E-001	2.00753E-006	0.00000E+000	2.27996E-001	0.00000E+000	9	...........	1467.52
	132	3.325	2.31975E-001	2.08184E-006	0.00000E+000	2.31994E-001	0.00000E+000	9	...........	1467.52
	136	3.425	2.35973E-001	2.15590E-006	0.00000E+000	2.36006E-001	0.00000E+000	9	...........	1467.52
	140	3.525	2.39973E-001	2.23033E-006	0.00000E+000	2.40004E-001	0.00000E+000	9	...........	1467.52
	144	3.625	2.43989E-001	2.30056E-006	0.00000E+000	2.44003E-001	0.00000E+000	9	...........	1467.52
	148	3.725	2.47952E-001	2.37332E-006	0.00000E+000	2.48001E-001	0.00000E+000	9	...........	1467.52
	152	3.825	2.51963E-001	2.44600E-006	0.00000E+000	2.52000E-001	0.00000E+000	9	...........	1467.52
	156	3.925	2.55979E-001	2.51931E-006	0.00000E+000	2.55999E-001	0.00000E+000	9	...........	1467.52
	160	4.025	2.59969E-001	2.59518E-006	0.00000E+000	2.59997E-001	0.00000E+000	9	...........	1467.52
	164	4.125	2.63964E-001	2.66490E-006	0.00000E+000	2.63996E-001	0.00000E+000	9	...........	1467.52
	168	4.225	2.67947E-001	2.75074E-006	0.00000E+000	2.67994E-001	0.00000E+000	9	...........	1467.52
	172	4.325	2.71984E-001	2.82916E-006	0.00000E+000	2.72006E-001	0.00000E+000	9	...........	1467.52
	176	4.425	2.75982E-001	2.90886E-006	0.00000E+000	2.76004E-001	0.00000E+000	9	...........	1467.52
	180	4.525	2.79962E-001	2.99376E-006	0.00000E+000	2.80003E-001	0.00000E+000	9	...........	1467.52
	184	4.625	2.83986E-001	3.07652E-006	0.00000E+000	2.84001E-001	0.00000E+000	9	...........	1467.52
	188	4.725	2.87979E-001	3.16111E-006	0.00000E+000	2.88000E-001	0.00000E+000	9	...........	1467.52
	192	4.825	2.91965E-001	3.24470E-006	0.00000E+000	2.91999E-001	0.00000E+000	9	...........	1467.52
	196	4.925	2.95984E-001	3.33894E-006	0.00000E+000	2.95997E-001	0.00000E+000	9	...........	1467.52
	200	5.025	2.99970E-001	3.43697E-006	0.00000E+000	2.99996E-001	0.00000E+000	9	...........	1467.52
	204	5.125	2.96001E-001	1.73220E-006	0.00000E+000	2.95997E-001	0.00000E+000	9	...........	1467.52
	208	5.225	2.91983E-001	1.45621E-006	0.00000E+000	2.91999E-001	0.00000E+000	9	...........	1467.52
	212	5.325	2.87997E-001	1.25936E-006	0.00000E+000	2.88000E-001	0.00000E+000	9	...........	1467.52
	216	5.425	2.84002E-001	1.09089E-006	0.00000E+000	2.84001E-001	0.00000E+000	9	...........	1467.52
	220	5.525	2.79990E-001	9.50194E-007	0.00000E+000	2.80003E-001	0.00000E+000	9	...........	1467.52
	224	5.625	2.76001E-001	8.20663E-007	0.00000E+000	2.76004E-001	0.00000E+000	9	...........	1467.52
	228	5.725	2.71997E-001	7.00499E-007	0.00000E+000	2.72006E-001	0.00000E+000	9	...........	1467.52
	232	5.825	2.67964E-001	5.83472E-007	0.00000E+000	2.67994E-001	0.00000E+000	9	...........	1467.52
	236	5.925	2.63975E-001	4.82175E-007	0.00000E+000	2.63996E-001	0.00000E+000	9	...........	1467.52
	240	6.025	2.59984E-001	3.85684E-007	0.00000E+000	2.59997E-001	0.00000E+000	9	...........	1467.52
	244	6.125	2.55983E-001	2.86211E-007	0.00000E+000	2.55999E-001	0.00000E+000	9	...........	1467.52
	248	6.225	2.51983E-001	2.00243E-007	0.00000E+000	2.52000E-001	0.00000E+000	9	...........	1467.52
	252	6.325	2.47992E-001	1.05820E-007	0.00000E+000	2.48001E-001	0.00000E+000	9	...........	1467.52
	256	6.425	2.44009E-001	2.45690E-008	0.00000E+000	2.44003E-001	0.00000E+000	9	...........	1467.52
	260	6.525	2.39999E-001	-6.31567E-008	0.00000E+000	2.40004E-001	0.00000E+000	9	...........	1467.43
	264	6.625	2.35997E-001	-1.45298E-007	0.00000E+000	2.36006E-001	0.00000E+000	9	...........	1467.43
	268	6.725	2.31999E-001	-2.32156E-007	0.00000E+000	2.31994E-001	0.00000E+000	9	...........	1467.43
	272	6.825	2.27980E-001	-3.18146E-007	0.00000E+000	2.27996E-001	0.00000E+000	9	...........	1467.43
	276	6.925	2.23997E-001	-4.01600E-007	0.00000E+000	2.23997E-001	0.00000E+000	9	...........	1467.43
	280	7.025	2.19991E-001	-4.89148E-007	0.00000E+000	2.19999E-001	0.00000E+000	9	...........	1467.43
	284	7.125	2.15979E-001	-5.74715E-007	0.00000E+000	2.16000E-001	0.00000E+000	9	...........	1467.43
	288	7.225	2.11996E-001	-6.61017E-007	0.00000E+000	2.12001E-001	0.00000E+000	9	...........	1467.43
	292	7.325	2.07984E-001	-7.51168E-007	0.00000E+000	2.08003E-001	0.00000E+000	9	...........	1467.43
	296	7.425	2.03993E-001	-8.37581E-007	0.00000E+000	2.04004E-001	0.00000E+000	9	...........	1467.43
	300	7.525	2.00010E-001	-9.23905E-007	0.00000E+000	2.00006E-001	0.00000E+000	9	...........	1467.61
	304	7.625	1.96007E-001	-1.01352E-006	0.00000E+000	1.95995E-001	0.00000E+000	9	...........	1467.61
	308	7.725	1.92016E-001	-1.10296E-006	0.00000E+000	1.91996E-001	0.00000E+000	9	...........	1467.61
	312	7.825	1.87993E-001	-1.19576E-006	0.00000E+000	1.87997E-001	0.00000E+000	9	...........	1467.61
	316	7.925	1.83999E-001	-1.28560E-006	0.00000E+000	1.83999E-001	0.00000E+000	9	...........	1467.61
	320	8.025	1.80002E-001	-1.37212E-006	0.00000E+000	1.80000E-001	0.00000E+000	9	...........	1467.61
	324	8.125	1.76008E-001	-1.46152E-006	0.00000E+000	1.76002E-001	0.00000E+000	9	...........	1467.61
	328	8.225	1.71985E-001	-1.55681E-006	0.00000E+000	1.72003E-001	0.00000E+000	9	...........	1467.61
	332	8.325	1.68007E-001	-1.65018E-006	0.00000E+000	1.68004E-001	0.00000E+000	9	...........	1467.61
	336	8.425	1.63999E-001	-1.74105E-006	0.00000E+000	1.64006E-001	0.00000E+000	9	...........	1467.61
	340	8.525	1.59989E-001	-1.83298E-006	0.00000E+000	1.59995E-001	0.00000E+000	9	...........	1467.70
	344	8.625	1.56002E-001	-1.92620E-006	0.00000E+000	1.55996E-001	0.00000E+000	9	...........	1467.70
	348	8.725	1.51987E-001	-2.01900E-006	0.00000E+000	1.51997E-001	0.00000E+000	9	...........	1467.70
	352	8.825	1.48001E-001	-2.10752E-006	0.00000E+000	1.47999E-001	0.00000E+000	9	...........	1467.70
	356	8.925	1.43992E-001	-2.19681E-006	0.00000E+000	1.44000E-001	0.00000E+000	9	...........	1467.70
	360	9.025	1.39984E-001	-2.28442E-006	0.00000E+000	1.40002E-001	0.00000E+000	9	...........	1467.70
	364	9.125	1.36010E-001	-2.37477E-006	0.00000E+000	1.36003E-001	0.00000E+000	9	...........	1467.70
	368	9.225	1.32022E-001	-2.46750E-006	0.00000E+000	1.32004E-001	0.00000E+000	9	...........	1467.70
	372	9.325	1.28004E-001	-2.55565E-006	0.00000E+000	1.28006E-001	0.00000E+000	9	...........	1467.70
	376	9.425	1.23996E-001	-2.64024E-006	0.00000E+000	1.23995E-001	0.00000E+000	9	...........	1467.70
	380	9.525	1.20001E-001	-2.73477E-006	0.00000E+000	1.19996E-001	0.00000E+000	9	...........	1467.52
	384	9.625	1.16014E-001	-2.82461E-006	0.00000E+000	1.15997E-001	0.00000E+000	9	...........	1467.52
	388	9.725	1.11991E-001	-2.91623E-006	0.00000E+000	1.11999E-001	0.00000E+000	9	...........	1467.52
	392	9.825	1.08004E-001	-3.00498E-006	0.00000E+000	1.08000E-001	0.00000E+000	9	...........	1467.52
	396	9.925	1.04023E-001	-3.09811E-006	0.00000E+000	1.04002E-001	0.00000E+000	9	...........	1467.52
	400	10.025	1.00008E-001	-3.19781E-006	0.00000E+000	1.00003E-001	0.00000E+000	9	...........	1467.52
CURVE2	TABLE
	Pt	T	Vf	Im	Vu	Sig	Ach	IERange	Over	Temp
	#	s	V vs. Ref.	A	V	V	V	#	bits	deg C
	401	10.05	1.00985E-001	-1.87558E-006	0.00000E+000	1.01003E-001	0.00000E+000	9	...........	1467.52
	405	10.15	1.04976E-001	-1.44200E-006	0.00000E+000	1.05001E-001	0.00000E+000	9	...........	1467.52
	409	10.25	1.08976E-001	-1.17407E-006	0.00000E+000	1.09000E-001	0.00000E+000	9	...........	1467.52
	413	10.35	1.12966E-001	-9.56855E-007	0.00000E+000	1.12999E-001	0.00000E+000	9	...........	1467.52
	417	10.45	1.16987E-001	-7.66675E-007	0.00000E+000	1.16997E-001	0.00000E+000	9	...........	1467.52
	421	10.55	1.20979E-001	-5.97854E-007	0.00000E+000	1.20996E-001	0.00000E+000	9	...........	1467.52
	425	10.65	1.24972E-001	-4.43427E-007	0.00000E+000	1.24994E-001	0.00000E+000	9	...........	1467.52
	429	10.75	1.29000E-001	-3.00392E-007	0.00000E+000	1.29005E-001	0.00000E+000	9	...........	1467.52
	433	10.85	1.32999E-001	-1.69504E-007	0.00000E+000	1.33004E-001	0.00000E+000	9	...........	1467.52
	437	10.95	1.36982E-001	-4.45570E-008	0.00000E+000	1.37003E-001	0.00000E+000	9	...........	1467.52
	441	11.05	1.41009E-001	6.84652E-008	0.00000E+000	1.41001E-001	0.00000E+000	9	...........	1467.52
	445	11.15	1.44974E-001	1.78306E-007	0.00000E+000	1.45000E-001	0.00000E+000	9	...........	1467.52
	449	11.25	1.48974E-001	2.83207E-007	0.00000E+000	1.48998E-001	0.00000E+000	9	...........	1467.52
	453	11.35	1.52965E-001	3.89288E-007	0.00000E+000	1.52997E-001	0.00000E+000	9	...........	1467.52
	457	11.45	1.56985E-001	4.91586E-007	0.00000E+000	1.56996E-001	0.00000E+000	9	...........	1467.52
	461	11.55	1.60965E-001	5.92772E-007	0.00000E+000	1.60994E-001	0.00000E+000	9	...........	1467.70
	465	11.65	1.64967E-001	6.88129E-007	0.00000E+000	1.65005E-001	0.00000E+000	9	...........	1467.70
	469	11.75	1.68981E-001	7.82507E-007	0.00000E+000	1.69004E-001	0.00000E+000	9	...........	1467.70
	473	11.85	1.72986E-001	8.67652E-007	0.00000E+000	1.73003E-001	0.00000E+000	9	...........	1467.70
	477	11.95	1.76957E-001	9.53086E-007	0.00000E+000	1.77001E-001	0.00000E+000	9	...........	1467.70
	481	12.05	1.80992E-001	1.04257E-006	0.00000E+000	1.81000E-001	0.00000E+000	9	...........	1467.70
	485	12.15	1.84984E-001	1.13014E-006	0.00000E+000	1.84998E-001	0.00000E+000	9	...........	1467.70
	489	12.25	1.88975E-001	1.21199E-006	0.00000E+000	1.88997E-001	0.00000E+000	9	...........	1467.70
	493	12.35	1.92994E-001	1.28766E-006	0.00000E+000	1.92996E-001	0.00000E+000	9	...........	1467.70
	497	12.45	1.96972E-001	1.35988E-006	0.00000E+000	1.96994E-001	0.00000E+000	9	...........	1467.70
	501	12.55	2.00985E-001	1.44694E-006	0.00000E+000	2.01005E-001	0.00000E+000	9	...........	1467.52
	505	12.65	2.04983E-001	1.52258E-006	0.00000E+000	2.05004E-001	0.00000E+000	9	...........	1467.52
	509	12.75	2.08973E-001	1.59509E-006	0.00000E+000	2.09003E-001	0.00000E+000	9	...........	1467.52
	513	12.85	2.12962E-001	1.67512E-006	0.00000E+000	2.13001E-001	0.00000E+000	9	...........	1467.52
	517	12.95	2.16959E-001	1.74978E-006	0.00000E+000	2.17000E-001	0.00000E+000	9	...........	1467.52
	521	13.05	2.20980E-001	1.82474E-006	0.00000E+000	2.20998E-001	0.00000E+000	9	...........	1467.52
	525	13.15	2.24955E-001	1.90056E-006	0.00000E+000	2.24997E-001	0.00000E+000	9	...........	1467.52
	529	13.25	2.28959E-001	1.96888E-006	0.00000E+000	2.28996E-001	0.00000E+000	9	...........	1467.52
	533	13.35	2.32969E-001	2.03914E-006	0.00000E+000	2.32994E-001	0.00000E+000	9	...........	1467.52
	537	13.45	2.36973E-001	2.12064E-006	0.00000E+000	2.37005E-001	0.00000E+000	9	...........	1467.52
	541	13.55	2.40971E-001	2.19150E-006	0.00000E+000	2.41004E-001	0.00000E+000	9	...........	1467.52
	545	13.65	2.44978E-001	2.26254E-006	0.00000E+000	2.45002E-001	0.00000E+000	9	...........	1467.52
	549	13.75	2.48972E-001	2.33879E-006	0.00000E+000	2.49001E-001	0.00000E+000	9	...........	1467.52
	553	13.85	2.52955E-001	2.40760E-006	0.00000E+000	2.53000E-001	0.00000E+000	9	...........	1467.52
	557	13.95	2.56989E-001	2.48169E-006	0.00000E+000	2.56998E-001	0.00000E+000	9	...........	1467.52
	561	14.05	2.60959E-001	2.55693E-006	0.00000E+000	2.60997E-001	0.00000E+000	9	...........	1467.52
	565	14.15	2.64958E-001	2.63511E-006	0.00000E+000	2.64995E-001	0.00000E+000	9	...........	1467.52
	569	14.25	2.68986E-001	2.71080E-006	0.00000E+000	2.68994E-001	0.00000E+000	9	...........	1467.52
	573	14.35	2.72981E-001	2.78872E-006	0.00000E+000	2.73005E-001	0.00000E+000	9	...........	1467.52
	577	14.45	2.76986E-001	2.86897E-006	0.00000E+000	2.77004E-001	0.00000E+000	9	...........	1467.52
	581	14.55	2.80962E-001	2.95547E-006	0.00000E+000	2.81002E-001	0.00000E+000	9	...........	1467.70
	585	14.65	2.84967E-001	3.03912E-006	0.00000E+000	2.85001E-001	0.00000E+000	9	...........	1467.70
	589	14.75	2.88976E-001	3.12647E-006	0.00000E+000	2.89000E-001	0.00000E+000	9	...........	1467.70
	593	14.85	2.92962E-001	3.21753E-006	0.00000E+000	2.92998E-001	0.00000E+000	9	...........	1467.70
	597	14.95	2.96976E-001	3.31262E-006	0.00000E+000	2.96997E-001	0.00000E+000	9	...........	1467.70
	601	15.05	2.98984E-001	2.04066E-006	0.00000E+000	2.98996E-001	0.00000E+000	9	...........	1467.70
[...]
	865	21.65	1.64969E-001	6.51508E-007	0.00000E+000	1.65005E-001	0.00000E+000	9	...........	1467.79
	869	21.75	1.68987E-001	7.42860E-007	0.00000E+000	1.69004E-001	0.00000E+000	9	...........	1467.79
	873	21.85	1.72977E-001	8.31053E-007	0.00000E+000	1.73003E-001	0.00000E+000	9	...........	1467.79
	877	21.95	1.76968E-001	9.25542E-007	0.00000E+000	1.77001E-001	0.00000E+000	9	...........	1467.79
	881	22.05	1.80985E-001	1.01485E-006	0.00000E+000	1.81000E-001	0.00000E+000	9	...........	1467.79
	885	22.15	1.84979E-001	1.10033E-006	0.00000E+000	1.84998E-001	0.00000E+000	9	...........	1467.79
	889	22.25	1.88971E-001	1.17537E-006	0.00000E+000	1.88997E-001	0.00000E+000	9	...........	1467.79
	893	22.35	1.93000E-001	1.25484E-006	0.00000E+000	1.92996E-001	0.00000E+000	9	...........	1467.79
	897	22.45	1.96982E-001	1.34114E-006	0.00000E+000	1.96994E-001	0.00000E+000	9	...........	1467.79
	901	22.55	2.00976E-001	1.42373E-006	0.00000E+000	2.01005E-001	0.00000E+000	9	...........	1467.70
	905	22.65	2.04976E-001	1.49699E-006	0.00000E+000	2.05004E-001	0.00000E+000	9	...........	1467.70
	909	22.75	2.08966E-001	1.57335E-006	0.00000E+000	2.09003E-001	0.00000E+000	9	...........	1467.70
	913	22.85	2.12955E-001	1.64641E-006	0.00000E+000	2.13001E-001	0.00000E+000	9	...........	1467.70
	917	22.95	2.16957E-001	1.72535E-006	0.00000E+000	2.17000E-001	0.00000E+000	9	...........	1467.70
	921	23.05	2.20975E-001	1.79297E-006	0.00000E+000	2.20998E-001	0.00000E+000	9	...........	1467.70
	925	23.15	2.24973E-001	1.87083E-006	0.00000E+000	2.24997E-001	0.00000E+000	9	...........	1467.70
	929	23.25	2.28970E-001	1.94296E-006	0.00000E+000	2.28996E-001	0.00000E+000	9	...........	1467.70
	933	23.35	2.32975E-001	2.02137E-006	0.00000E+000	2.32994E-001	0.00000E+000	9	...........	1467.70
	937	23.45	2.36985E-001	2.09465E-006	0.00000E+000	2.37005E-001	0.00000E+000	9	...........	1467.70
	941	23.55	2.40972E-001	2.16694E-006	0.00000E+000	2.41004E-001	0.00000E+000	9	...........	1467.52
	945	23.65	2.44986E-001	2.24027E-006	0.00000E+000	2.45002E-001	0.00000E+000	9	...........	1467.52
	949	23.75	2.48969E-001	2.31863E-006	0.00000E+000	2.49001E-001	0.00000E+000	9	...........	1467.52
	953	23.85	2.52959E-001	2.39007E-006	0.00000E+000	2.53000E-001	0.00000E+000	9	...........	1467.52
	957	23.95	2.56967E-001	2.46244E-006	0.00000E+000	2.56998E-001	0.00000E+000	9	...........	1467.52
	961	24.05	2.60970E-001	2.54479E-006	0.00000E+000	2.60997E-001	0.00000E+000	9	...........	1467.52
	965	24.15	2.64944E-001	2.61289E-006	0.00000E+000	2.64995E-001	0.00000E+000	9	...........	1467.52
	969	24.25	2.68979E-001	2.69394E-006	0.00000E+000	2.68994E-001	0.00000E+000	9	...........	1467.52
	973	24.35	2.72977E-001	2.77655E-006	0.00000E+000	2.73005E-001	0.00000E+000	9	...........	1467.52
	977	24.45	2.76979E-001	2.85286E-006	0.00000E+000	2.77004E-001	0.00000E+000	9	...........	1467.52
	981	24.55	2.80958E-001	2.93516E-006	0.00000E+000	2.81002E-001	0.00000E+000	9	...........	1467.52
	985	24.65	2.84979E-001	3.01948E-006	0.00000E+000	2.85001E-001	0.00000E+000	9	...........	1467.52
	989	24.75	2.88976E-001	3.10433E-006	0.00000E+000	2.89000E-001	0.00000E+000	9	...........	1467.52
	993	24.85	2.92965E-001	3.19796E-006	0.00000E+000	2.92998E-001	0.00000E+000	9	...........	1467.52
	997	24.95	2.96969E-001	3.29296E-006	0.00000E+000	2.96997E-001	0.00000E+000	9	...........	1467.52
	1001	25.05	2.98988E-001	2.02341E-006	0.00000E+000	2.98996E-001	0.00000E+000	9	...........	1467.52
	1005	25.15	2.95012E-001	1.58648E-006	0.00000E+000	2.94998E-001	0.00000E+000	9	...........	1467.52
	1009	25.25	2.90975E-001	1.33612E-006	0.00000E+000	2.90999E-001	0.00000E+000	9	...........	1467.52
	1013	25.35	2.86989E-001	1.14705E-006	0.00000E+000	2.87000E-001	0.00000E+000	9	...........	1467.52
	1017	25.45	2.82994E-001	9.86214E-007	0.00000E+000	2.83002E-001	0.00000E+000	9	...........	1467.52
	1021	25.55	2.78975E-001	8.45470E-007	0.00000E+000	2.79003E-001	0.00000E+000	9	...........	1467.97
	1025	25.65	2.74989E-001	7.13137E-007	0.00000E+000	2.75004E-001	0.00000E+000	9	...........	1467.97
	1029	25.75	2.71010E-001	6.01961E-007	0.00000E+000	2.71006E-001	0.00000E+000	9	...........	1467.97
	1033	25.85	2.66963E-001	4.96570E-007	0.00000E+000	2.66995E-001	0.00000E+000	9	...........	1467.97
	1037	25.95	2.62982E-001	3.86195E-007	0.00000E+000	2.62996E-001	0.00000E+000	9	...........	1467.97
	1041	26.05	2.58987E-001	2.87101E-007	0.00000E+000	2.58998E-001	0.00000E+000	9	...........	1467.97
	1045	26.15	2.54972E-001	2.00532E-007	0.00000E+000	2.54999E-001	0.00000E+000	9	...........	1467.97
	1049	26.25	2.50988E-001	1.09736E-007	0.00000E+000	2.51000E-001	0.00000E+000	9	...........	1467.97
	1053	26.35	2.46996E-001	1.15536E-008	0.00000E+000	2.47002E-001	0.00000E+000	9	...........	1467.97
	1057	26.45	2.42986E-001	-7.08992E-008	0.00000E+000	2.43003E-001	0.00000E+000	9	...........	1467.97
	1061	26.55	2.38985E-001	-1.58247E-007	0.00000E+000	2.39005E-001	0.00000E+000	9	...........	1467.43
	1065	26.65	2.34992E-001	-2.44103E-007	0.00000E+000	2.35006E-001	0.00000E+000	9	...........	1467.43
	1069	26.75	2.30988E-001	-3.27980E-007	0.00000E+000	2.30995E-001	0.00000E+000	9	...........	1467.43
	1073	26.85	2.26969E-001	-4.12457E-007	0.00000E+000	2.26996E-001	0.00000E+000	9	...........	1467.43
	1077	26.95	2.22984E-001	-4.99916E-007	0.00000E+000	2.22998E-001	0.00000E+000	9	...........	1467.43
	1081	27.05	2.18989E-001	-5.89088E-007	0.00000E+000	2.18999E-001	0.00000E+000	9	...........	1467.43
	1085	27.15	2.14983E-001	-6.80974E-007	0.00000E+000	2.15000E-001	0.00000E+000	9	...........	1467.43
	1089	27.25	2.10999E-001	-7.66230E-007	0.00000E+000	2.11002E-001	0.00000E+000	9	...........	1467.43
	1093	27.35	2.06999E-001	-8.54334E-007	0.00000E+000	2.07003E-001	0.00000E+000	9	...........	1467.43
	1097	27.45	2.02991E-001	-9.40769E-007	0.00000E+000	2.03005E-001	0.00000E+000	9	...........	1467.43
	1101	27.55	1.99013E-001	-1.02044E-006	0.00000E+000	1.99006E-001	0.00000E+000	9	...........	1467.52
	1105	27.65	1.95002E-001	-1.11813E-006	0.00000E+000	1.94995E-001	0.00000E+000	9	...........	1467.52
	1109	27.75	1.90979E-001	-1.21224E-006	0.00000E+000	1.90996E-001	0.00000E+000	9	...........	1467.52
	1113	27.85	1.87001E-001	-1.30337E-006	0.00000E+000	1.86998E-001	0.00000E+000	9	...........	1467.52
	1117	27.95	1.82997E-001	-1.39419E-006	0.00000E+000	1.82999E-001	0.00000E+000	9	...........	1467.52
	1121	28.05	1.78978E-001	-1.48946E-006	0.00000E+000	1.79000E-001	0.00000E+000	9	...........	1467.52
	1125	28.15	1.74995E-001	-1.58237E-006	0.00000E+000	1.75002E-001	0.00000E+000	9	...........	1467.52
	1129	28.25	1.70996E-001	-1.67103E-006	0.00000E+000	1.71003E-001	0.00000E+000	9	...........	1467.52
	1133	28.35	1.67014E-001	-1.76725E-006	0.00000E+000	1.67005E-001	0.00000E+000	9	...........	1467.52
	1137	28.45	1.62994E-001	-1.86121E-006	0.00000E+000	1.63006E-001	0.00000E+000	9	...........	1467.52
	1141	28.55	1.58978E-001	-1.94871E-006	0.00000E+000	1.58995E-001	0.00000E+000	9	...........	1467.43
	1145	28.65	1.54987E-001	-2.03900E-006	0.00000E+000	1.54996E-001	0.00000E+000	9	...........	1467.43
	1149	28.75	1.50981E-001	-2.12988E-006	0.00000E+000	1.50998E-001	0.00000E+000	9	...........	1467.43
	1153	28.85	1.47007E-001	-2.21966E-006	0.00000E+000	1.46999E-001	0.00000E+000	9	...........	1467.43
	1157	28.95	1.43012E-001	-2.31748E-006	0.00000E+000	1.43001E-001	0.00000E+000	9	...........	1467.43
	1161	29.05	1.38999E-001	-2.40661E-006	0.00000E+000	1.39002E-001	0.00000E+000	9	...........	1467.43
	1165	29.15	1.34997E-001	-2.49740E-006	0.00000E+000	1.35003E-001	0.00000E+000	9	...........	1467.43
	1169	29.25	1.31015E-001	-2.58878E-006	0.00000E+000	1.31005E-001	0.00000E+000	9	...........	1467.43
	1173	29.35	1.27000E-001	-2.68471E-006	0.00000E+000	1.27006E-001	0.00000E+000	9	...........	1467.43
	1177	29.45	1.22987E-001	-2.76717E-006	0.00000E+000	1.22995E-001	0.00000E+000	9	...........	1467.43
	1181	29.55	1.18997E-001	-2.85676E-006	0.00000E+000	1.18996E-001	0.00000E+000	9	...........	1467.79
	1185	29.65	1.15000E-001	-2.94974E-006	0.00000E+000	1.14998E-001	0.00000E+000	9	...........	1467.79
	1189	29.75	1.10998E-001	-3.04051E-006	0.00000E+000	1.10999E-001	0.00000E+000	9	...........	1467.79
	1193	29.85	1.06998E-001	-3.13943E-006	0.00000E+000	1.07001E-001	0.00000E+000	9	...........	1467.79
	1197	29.95	1.03018E-001	-3.23708E-006	0.00000E+000	1.03002E-001	0.00000E+000	9	...........	1467.79
	1200	30.025	1.00005E-001	-3.30077E-006	0.00000E+000	1.00003E-001	0.00000E+000	9	...........	1467.79
CURVE4	TABLE
	Pt	T	Vf	Im	Vu	Sig	Ach	IERange	Over	Temp
	#	s	V vs. Ref.	A	V	V	V	#	bits	deg C
	1201	30.05	9.99940E-002	-2.65448E-006	0.00000E+000	1.00003E-001	0.00000E+000	9	...........	1467.79