File: input/ECSA_test/CV_ECSA_#1_#9.DTA
EXPLAIN
TAG	CV
TITLE	LABEL	ECSA	Test Identifier
DATE	LABEL	2/13/2024	Date
TIME	LABEL	8:50:28	Time
NOTES	NOTES	1	Notes...

PSTAT	PSTAT	IFC1010-36068	Potentiostat
VINIT	POTEN	1.00000E-001	F	Initial E (V)
VLIMIT1	POTEN	3.00000E-001	F	Scan Limit 1 (V)
VLIMIT2	POTEN	1.00000E-001	F	Scan Limit 2 (V)
VFINAL	POTEN	1.00000E-001	F	Final E (V)
SCANRATE	QUANT	8.99998E+001	A Real Number
STEPSIZE	QUANT	1.00000E+000	Step Size (mV)
CYCLES	IQUANT	3	Cycles (#)
IMODE	SELECTOR	1	I/E Range Mode
IRANGE	QUANT	3.00000E-001	Max Current (mA)
AREA	QUANT	1.00000E+000	Sample Area (cm^2)
EQDELAY	QUANT	0.00000E+000	Equil. Time (s)
IRCOMP	SELECTOR	0	IRComp
PFCOR	QUANT	5.00000E+001	PF Corr. (ohm)
SAMPLINGMODE	SELECTOR	2	Sampling Mode
EOC	QUANT	0.3246219	Open Circuit (V)
ELECTRODETYPE	SELECTOR	0	Electrode Type
STRIPPING	TOGGLE	F	Used for Stripping
SEQUENCER	TOGGLE	TRUE	Run as Sequence
PSTATMODEL	IQUANT	64	Pstat Model
PSTATSECTION	LABEL	IFC1010-36068	Pstat Section
PSTATSERIALNO	LABEL	36068	Pstat Serial Number
CTRLMODE	IQUANT	1	Control Mode
ELECTROMETER	IQUANT	0	RE=0 or CS=1
IESTAB	IQUANT	2	I/E Stability
CASPEED	IQUANT	4	Control Amp Speed
CONVENTION	IQUANT	1	Current Convention
ICHRANGE	IQUANT	2	Ich Range
ICHRANGEMODE	TOGGLE	F	Ich Auto Range
ICHOFFSETENABLE	TOGGLE	F	Ich Offset Enable
ICHOFFSET	QUANT	0	Ich Offset (V)
ICHFILTER	IQUANT	3	Ich Filter
VCHRANGE	IQUANT	2	Vch Range
VCHRANGEMODE	TOGGLE	F	Vch Auto Range
VCHOFFSETENABLE	TOGGLE	F	Vch Offset Enable
VCHOFFSET	QUANT	0	Vch Offset (V)
VCHFILTER	IQUANT	3	Vch Filter
IERANGELOWERLIMIT	IQUANT	4	I/E Range Lower Limit
IERANGEMODE	TOGGLE	F	I/E AutoRange
IERANGE	IQUANT	9	I/E Range
ACHSELECT	IQUANT	0	Ach Select
ACHRANGE	IQUANT	2	Ach Range
ACHOFFSETENABLE	TOGGLE	F	Ach Offset Enable
ACHOFFSET	QUANT	0	Ach Offset (V)
ACHFILTER	IQUANT	1	Ach Filter
SENSECABLEID	IQUANT	13	Sense Cable ID
PWRCABLEID	IQUANT	13	Power Cable ID
DCCALDATE	LABEL	8/11/2023	DC Calibration Date
ACCALDATE	LABEL	6/2/2023	AC Calibration Date
FRAMEWORKVERSION	LABEL	7.10.3	Framework Version
INSTRUMENTVERSION	LABEL	4.91	Instrument Version
COMMVERSION	LABEL	3.10	Communications Version
CPUPLDVERSION	LABEL	2.22	CPU PLD Version
CTRLPLDVERSION	LABEL	0.00	CTRL PLD Version
PSTATPLDVERSION	LABEL	0.00	PSTAT PLD Version
CURVE1	TABLE
	Pt	T	Vf	Im	Vu	Sig	Ach	IERange	Over	Temp
	#	s	V vs. Ref.	A	V	V	V	#	bits	deg C
	0	0.011117	1.00001E-001	-1.05217E-005	0.00000E+000	1.00003E-001	0.00000E+000	9	...........	1467.43
	5	0.0667	1.04970E-001	-8.09484E-006	0.00000E+000	1.05001E-001	0.00000E+000	9	...........	1467.43
	10	0.122283	1.09971E-001	-7.27763E-006	0.00000E+000	1.10000E-001	0.00000E+000	9	...........	1467.43
	15	0.177867	1.14988E-001	-6.58610E-006	0.00000E+000	1.15010E-001	0.00000E+000	9	...........	1467.43
	20	0.23345	1.19978E-001	-5.97482E-006	0.00000E+000	1.20009E-001	0.00000E+000	9	...........	1467.43
	25	0.289033	1.24971E-001	-5.38138E-006	0.00000E+000	1.25007E-001	0.00000E+000	9	...........	1467.43
	30	0.344617	1.29982E-001	-4.81901E-006	0.00000E+000	1.30018E-001	0.00000E+000	9	...........	1467.43
	35	0.4002	1.34983E-001	-4.32821E-006	0.00000E+000	1.35016E-001	0.00000E+000	9	...........	1467.43
	40	0.455783	1.39974E-001	-3.90301E-006	0.00000E+000	1.40014E-001	0.00000E+000	9	...........	1467.43
	45	0.511367	1.44987E-001	-3.47586E-006	0.00000E+000	1.45025E-001	0.00000E+000	9	...........	1467.43
	50	0.56695	1.49976E-001	-3.06078E-006	0.00000E+000	1.50023E-001	0.00000E+000	9	...........	1467.43
	55	0.622533	1.54982E-001	-2.65132E-006	0.00000E+000	1.55021E-001	0.00000E+000	9	...........	1467.43
	60	0.678117	1.59991E-001	-2.29328E-006	0.00000E+000	1.60032E-001	0.00000E+000	9	...........	1467.43
	65	0.7337	1.64970E-001	-1.98286E-006	0.00000E+000	1.65030E-001	0.00000E+000	9	...........	1467.43
	70	0.789283	1.70009E-001	-1.64165E-006	0.00000E+000	1.70041E-001	0.00000E+000	9	...........	1467.43
	75	0.844867	1.75001E-001	-1.32050E-006	0.00000E+000	1.75039E-001	0.00000E+000	9	...........	1467.43
	80	0.90045	1.80004E-001	-1.01057E-006	0.00000E+000	1.80038E-001	0.00000E+000	9	...........	1467.43
	85	0.95603	1.85013E-001	-7.17236E-007	0.00000E+000	1.85048E-001	0.00000E+000	9	...........	1467.43
	90	1.01162	1.90004E-001	-4.74968E-007	0.00000E+000	1.90047E-001	0.00000E+000	9	...........	1467.43
	95	1.0672	1.95023E-001	-1.96765E-007	0.00000E+000	1.95045E-001	0.00000E+000	9	...........	1467.43
	100	1.12278	2.00025E-001	1.04191E-007	0.00000E+000	2.00056E-001	0.00000E+000	9	...........	1467.43
	105	1.17837	2.05029E-001	3.38891E-007	0.00000E+000	2.05054E-001	0.00000E+000	9	...........	1467.52
	110	1.23395	2.10009E-001	5.48884E-007	0.00000E+000	2.10052E-001	0.00000E+000	9	...........	1467.52
	115	1.28953	2.15013E-001	7.89047E-007	0.00000E+000	2.15063E-001	0.00000E+000	9	...........	1467.52
	120	1.34512	2.20019E-001	1.00861E-006	0.00000E+000	2.20061E-001	0.00000E+000	9	...........	1467.52
	125	1.4007	2.25003E-001	1.25895E-006	0.00000E+000	2.25059E-001	0.00000E+000	9	...........	1467.52
	130	1.45628	2.30016E-001	1.45095E-006	0.00000E+000	2.30070E-001	0.00000E+000	9	...........	1467.52
	135	1.51187	2.35020E-001	1.61634E-006	0.00000E+000	2.35068E-001	0.00000E+000	9	...........	1467.52
	140	1.56745	2.40015E-001	1.80197E-006	0.00000E+000	2.40067E-001	0.00000E+000	9	...........	1467.52
	145	1.62303	2.45042E-001	2.00430E-006	0.00000E+000	2.45077E-001	0.00000E+000	9	...........	1467.52
	150	1.67862	2.50033E-001	2.19084E-006	0.00000E+000	2.50076E-001	0.00000E+000	9	...........	1467.52
	155	1.7342	2.55015E-001	2.35016E-006	0.00000E+000	2.55074E-001	0.00000E+000	9	...........	1467.52
	160	1.78978	2.60036E-001	2.49675E-006	0.00000E+000	2.60085E-001	0.00000E+000	9	...........	1467.52
	165	1.84537	2.65028E-001	2.68089E-006	0.00000E+000	2.65083E-001	0.00000E+000	9	...........	1467.52
	170	1.90095	2.70037E-001	2.86301E-006	0.00000E+000	2.70081E-001	0.00000E+000	9	...........	1467.52
	175	1.95653	2.75052E-001	3.02439E-006	0.00000E+000	2.75092E-001	0.00000E+000	9	...........	1467.52
	180	2.01212	2.80027E-001	3.16778E-006	0.00000E+000	2.80090E-001	0.00000E+000	9	...........	1467.52
	185	2.0677	2.85042E-001	3.31943E-006	0.00000E+000	2.85088E-001	0.00000E+000	9	...........	1467.52
	190	2.12328	2.90052E-001	3.50352E-006	0.00000E+000	2.90099E-001	0.00000E+000	9	...........	1467.52
	195	2.17887	2.95071E-001	3.69055E-006	0.00000E+000	2.95097E-001	0.00000E+000	9	...........	1467.52
	200	2.23445	3.00050E-001	3.85399E-006	0.00000E+000	3.00096E-001	0.00000E+000	9	...........	1467.52
	205	2.29003	2.95111E-001	6.69718E-007	0.00000E+000	2.95097E-001	0.00000E+000	9	...........	1467.52
	210	2.34562	2.90099E-001	1.66838E-007	0.00000E+000	2.90099E-001	0.00000E+000	9	...........	1467.52
	215	2.4012	2.85091E-001	-1.85188E-007	0.00000E+000	2.85088E-001	0.00000E+000	9	...........	1467.52
	220	2.45678	2.80075E-001	-4.90805E-007	0.00000E+000	2.80090E-001	0.00000E+000	9	...........	1467.52
	225	2.51237	2.75099E-001	-7.87351E-007	0.00000E+000	2.75092E-001	0.00000E+000	9	...........	1467.52
	230	2.56795	2.70092E-001	-1.07603E-006	0.00000E+000	2.70081E-001	0.00000E+000	9	...........	1467.52
	235	2.62353	2.65078E-001	-1.31484E-006	0.00000E+000	2.65083E-001	0.00000E+000	9	...........	1467.52
	240	2.67912	2.60070E-001	-1.52152E-006	0.00000E+000	2.60085E-001	0.00000E+000	9	...........	1467.52
	245	2.7347	2.55040E-001	-1.74876E-006	0.00000E+000	2.55074E-001	0.00000E+000	9	...........	1467.52
	250	2.79028	2.50069E-001	-1.98646E-006	0.00000E+000	2.50076E-001	0.00000E+000	9	...........	1467.52
	255	2.84587	2.45083E-001	-2.21430E-006	0.00000E+000	2.45077E-001	0.00000E+000	9	...........	1467.52
	260	2.90145	2.40063E-001	-2.41808E-006	0.00000E+000	2.40067E-001	0.00000E+000	9	...........	1467.52
	265	2.95703	2.35069E-001	-2.61609E-006	0.00000E+000	2.35068E-001	0.00000E+000	9	...........	1467.52
	270	3.01262	2.30056E-001	-2.86006E-006	0.00000E+000	2.30070E-001	0.00000E+000	9	...........	1467.52
	275	3.0682	2.25048E-001	-3.11075E-006	0.00000E+000	2.25059E-001	0.00000E+000	9	...........	1467.52
	280	3.12378	2.20049E-001	-3.34139E-006	0.00000E+000	2.20061E-001	0.00000E+000	9	...........	1467.52
	285	3.17937	2.15045E-001	-3.55991E-006	0.00000E+000	2.15063E-001	0.00000E+000	9	...........	1467.43
	290	3.23495	2.10040E-001	-3.81716E-006	0.00000E+000	2.10052E-001	0.00000E+000	9	...........	1467.43
	295	3.29053	2.05070E-001	-4.09987E-006	0.00000E+000	2.05054E-001	0.00000E+000	9	...........	1467.43
	300	3.34612	2.00060E-001	-4.38935E-006	0.00000E+000	2.00056E-001	0.00000E+000	9	...........	1467.43
	305	3.4017	1.95055E-001	-4.66144E-006	0.00000E+000	1.95045E-001	0.00000E+000	9	...........	1467.43
	310	3.45728	1.90038E-001	-4.93348E-006	0.00000E+000	1.90047E-001	0.00000E+000	9	...........	1467.43
	315	3.51287	1.85045E-001	-5.25473E-006	0.00000E+000	1.85048E-001	0.00000E+000	9	...........	1467.43
	320	3.56845	1.80038E-001	-5.59072E-006	0.00000E+000	1.80038E-001	0.00000E+000	9	...........	1467.43
	325	3.62403	1.75038E-001	-5.91959E-006	0.00000E+000	1.75039E-001	0.00000E+000	9	...........	1467.43
	330	3.67962	1.70054E-001	-6.22721E-006	0.00000E+000	1.70041E-001	0.00000E+000	9	...........	1467.43
	335	3.7352	1.65017E-001	-6.54691E-006	0.00000E+000	1.65030E-001	0.00000E+000	9	...........	1467.43
	340	3.79078	1.60032E-001	-6.90806E-006	0.00000E+000	1.60032E-001	0.00000E+000	9	...........	1467.43
	345	3.84637	1.55029E-001	-7.29116E-006	0.00000E+000	1.55021E-001	0.00000E+000	9	...........	1467.43
	350	3.90195	1.50017E-001	-7.63156E-006	0.00000E+000	1.50023E-001	0.00000E+000	9	...........	1467.43
	355	3.95753	1.45020E-001	-7.97872E-006	0.00000E+000	1.45025E-001	0.00000E+000	9	...........	1467.43
	360	4.01312	1.40013E-001	-8.36433E-006	0.00000E+000	1.40014E-001	0.00000E+000	9	...........	1467.43
	365	4.0687	1.35019E-001	-8.76492E-006	0.00000E+000	1.35016E-001	0.00000E+000	9	...........	1467.43
	370	4.12428	1.30031E-001	-9.20024E-006	0.00000E+000	1.30018E-001	0.00000E+000	9	...........	1467.43
	375	4.17987	1.25015E-001	-9.62458E-006	0.00000E+000	1.25007E-001	0.00000E+000	9	...........	1467.52
	380	4.23545	1.20019E-001	-1.00164E-005	0.00000E+000	1.20009E-001	0.00000E+000	9	...........	1467.52
	385	4.29103	1.15019E-001	-1.04848E-005	0.00000E+000	1.15010E-001	0.00000E+000	9	...........	1467.52
	390	4.34662	1.10007E-001	-1.10063E-005	0.00000E+000	1.10000E-001	0.00000E+000	9	...........	1467.52
	395	4.4022	1.05009E-001	-1.14855E-005	0.00000E+000	1.05001E-001	0.00000E+000	9	...........	1467.52
	400	4.45778	1.00005E-001	-1.19729E-005	0.00000E+000	1.00003E-001	0.00000E+000	9	...........	1467.52
CURVE2	TABLE
	Pt	T	Vf	Im	Vu	Sig	Ach	IERange	Over	Temp
	#	s	V vs. Ref.	A	V	V	V	#	bits	deg C
	401	4.4689	1.00966E-001	-9.41374E-006	0.00000E+000	1.01003E-001	0.00000E+000	9	...........	1467.52
	406	4.52448	1.05963E-001	-8.20159E-006	0.00000E+000	1.06001E-001	0.00000E+000	9	...........	1467.52
	411	4.58007	1.10972E-001	-7.36122E-006	0.00000E+000	1.11012E-001	0.00000E+000	9	...........	1467.52
	416	4.63565	1.15989E-001	-6.64043E-006	0.00000E+000	1.16010E-001	0.00000E+000	9	...........	1467.52
	421	4.69123	1.20977E-001	-5.99216E-006	0.00000E+000	1.21008E-001	0.00000E+000	9	...........	1467.52
	426	4.74682	1.25978E-001	-5.40899E-006	0.00000E+000	1.26019E-001	0.00000E+000	9	...........	1467.52
	431	4.8024	1.30990E-001	-4.88817E-006	0.00000E+000	1.31017E-001	0.00000E+000	9	...........	1467.52
	436	4.85798	1.35974E-001	-4.37858E-006	0.00000E+000	1.36015E-001	0.00000E+000	9	...........	1467.52
	441	4.91357	1.41011E-001	-3.86377E-006	0.00000E+000	1.41026E-001	0.00000E+000	9	...........	1467.52
	446	4.96915	1.45982E-001	-3.46107E-006	0.00000E+000	1.46024E-001	0.00000E+000	9	...........	1467.52
	451	5.02473	1.50973E-001	-3.07236E-006	0.00000E+000	1.51023E-001	0.00000E+000	9	...........	1467.52
	456	5.08032	1.55997E-001	-2.68691E-006	0.00000E+000	1.56034E-001	0.00000E+000	9	...........	1467.52
	461	5.1359	1.60986E-001	-2.31168E-006	0.00000E+000	1.61032E-001	0.00000E+000	9	...........	1467.52
	466	5.19148	1.65969E-001	-1.94993E-006	0.00000E+000	1.66030E-001	0.00000E+000	9	...........	1467.43
	471	5.24707	1.70994E-001	-1.63454E-006	0.00000E+000	1.71041E-001	0.00000E+000	9	...........	1467.43
	476	5.30265	1.76002E-001	-1.34436E-006	0.00000E+000	1.76039E-001	0.00000E+000	9	...........	1467.43
	481	5.35823	1.81003E-001	-1.03082E-006	0.00000E+000	1.81037E-001	0.00000E+000	9	...........	1467.43
	486	5.41382	1.86011E-001	-7.14029E-007	0.00000E+000	1.86048E-001	0.00000E+000	9	...........	1467.43
	491	5.4694	1.90994E-001	-4.32468E-007	0.00000E+000	1.91046E-001	0.00000E+000	9	...........	1467.43
	496	5.52498	1.96012E-001	-1.93407E-007	0.00000E+000	1.96045E-001	0.00000E+000	9	...........	1467.43
	501	5.58057	2.01011E-001	5.94859E-008	0.00000E+000	2.01055E-001	0.00000E+000	9	...........	1467.43
	506	5.63615	2.06017E-001	3.21801E-007	0.00000E+000	2.06054E-001	0.00000E+000	9	...........	1467.43
	511	5.69173	2.11003E-001	5.86973E-007	0.00000E+000	2.11052E-001	0.00000E+000	9	...........	1467.43
	516	5.74732	2.16005E-001	8.07140E-007	0.00000E+000	2.16063E-001	0.00000E+000	9	...........	1467.43
	521	5.8029	2.21024E-001	1.00581E-006	0.00000E+000	2.21061E-001	0.00000E+000	9	...........	1467.43
	526	5.85848	2.26010E-001	1.21946E-006	0.00000E+000	2.26059E-001	0.00000E+000	9	...........	1467.43
	531	5.91407	2.31039E-001	1.44654E-006	0.00000E+000	2.31070E-001	0.00000E+000	9	...........	1467.43
	536	5.96965	2.36025E-001	1.64816E-006	0.00000E+000	2.36068E-001	0.00000E+000	9	...........	1467.43
	541	6.02523	2.41020E-001	1.81596E-006	0.00000E+000	2.41066E-001	0.00000E+000	9	...........	1467.43
	546	6.08082	2.46029E-001	1.97628E-006	0.00000E+000	2.46077E-001	0.00000E+000	9	...........	1467.43
	551	6.1364	2.51031E-001	2.15615E-006	0.00000E+000	2.51075E-001	0.00000E+000	9	...........	1467.43
	556	6.19198	2.56017E-001	2.36053E-006	0.00000E+000	2.56074E-001	0.00000E+000	9	...........	1467.43
	561	6.24757	2.61022E-001	2.52778E-006	0.00000E+000	2.61084E-001	0.00000E+000	9	...........	1467.43
	566	6.30315	2.66028E-001	2.68164E-006	0.00000E+000	2.66083E-001	0.00000E+000	9	...........	1467.43
	571	6.35873	2.71048E-001	2.83630E-006	0.00000E+000	2.71081E-001	0.00000E+000	9	...........	1467.43
	576	6.41432	2.76051E-001	3.01306E-006	0.00000E+000	2.76092E-001	0.00000E+000	9	...........	1467.43
	581	6.4699	2.81036E-001	3.19725E-006	0.00000E+000	2.81090E-001	0.00000E+000	9	...........	1467.43
	586	6.52548	2.86047E-001	3.35477E-006	0.00000E+000	2.86088E-001	0.00000E+000	9	...........	1467.43
	591	6.58107	2.91044E-001	3.49820E-006	0.00000E+000	2.91099E-001	0.00000E+000	9	...........	1467.43
	596	6.63665	2.96059E-001	3.66374E-006	0.00000E+000	2.96097E-001	0.00000E+000	9	...........	1467.43
	601	6.69223	2.99097E-001	1.41396E-006	0.00000E+000	2.99096E-001	0.00000E+000	9	...........	1467.43
	606	6.74782	2.94077E-001	5.67027E-007	0.00000E+000	2.94098E-001	0.00000E+000	9	...........	1467.43
	611	6.8034	2.89096E-001	8.40937E-008	0.00000E+000	2.89100E-001	0.00000E+000	9	...........	1467.43
	616	6.85898	2.84091E-001	-2.86325E-007	0.00000E+000	2.84089E-001	0.00000E+000	9	...........	1467.43
	621	6.91457	2.79084E-001	-5.83873E-007	0.00000E+000	2.79091E-001	0.00000E+000	9	...........	1467.43
	626	6.97015	2.74088E-001	-8.40576E-007	0.00000E+000	2.74092E-001	0.00000E+000	9	...........	1467.43
	631	7.02573	2.69096E-001	-1.09297E-006	0.00000E+000	2.69082E-001	0.00000E+000	9	...........	1467.43
	636	7.08132	2.64077E-001	-1.35258E-006	0.00000E+000	2.64083E-001	0.00000E+000	9	...........	1467.43
	641	7.1369	2.59079E-001	-1.58292E-006	0.00000E+000	2.59085E-001	0.00000E+000	9	...........	1467.46
	646	7.19248	2.54056E-001	-1.78349E-006	0.00000E+000	2.54074E-001	0.00000E+000	9	...........	1467.52
	651	7.24807	2.49061E-001	-1.98025E-006	0.00000E+000	2.49076E-001	0.00000E+000	9	...........	1467.52
	656	7.30365	2.44086E-001	-2.21876E-006	0.00000E+000	2.44078E-001	0.00000E+000	9	...........	1467.52
	661	7.35923	2.39063E-001	-2.47416E-006	0.00000E+000	2.39067E-001	0.00000E+000	9	...........	1467.52
	666	7.41482	2.34062E-001	-2.69142E-006	0.00000E+000	2.34069E-001	0.00000E+000	9	...........	1467.52
	671	7.4704	2.29059E-001	-2.90407E-006	0.00000E+000	2.29071E-001	0.00000E+000	9	...........	1467.52
	676	7.52598	2.24062E-001	-3.11917E-006	0.00000E+000	2.24060E-001	0.00000E+000	9	...........	1467.52
	681	7.58157	2.19064E-001	-3.38815E-006	0.00000E+000	2.19062E-001	0.00000E+000	9	...........	1467.52
	686	7.63715	2.14039E-001	-3.66420E-006	0.00000E+000	2.14051E-001	0.00000E+000	9	...........	1467.52
	691	7.69273	2.09052E-001	-3.89930E-006	0.00000E+000	2.09053E-001	0.00000E+000	9	...........	1467.52
	696	7.74832	2.04051E-001	-4.12979E-006	0.00000E+000	2.04054E-001	0.00000E+000	9	...........	1467.52
	701	7.8039	1.99052E-001	-4.43411E-006	0.00000E+000	1.99043E-001	0.00000E+000	9	...........	1467.52
	706	7.85948	1.94071E-001	-4.73150E-006	0.00000E+000	1.94045E-001	0.00000E+000	9	...........	1467.52
	711	7.91507	1.89039E-001	-5.03176E-006	0.00000E+000	1.89047E-001	0.00000E+000	9	...........	1467.52
	716	7.97065	1.84032E-001	-5.33337E-006	0.00000E+000	1.84036E-001	0.00000E+000	9	...........	1467.52
	721	8.02623	1.79021E-001	-5.61157E-006	0.00000E+000	1.79038E-001	0.00000E+000	9	...........	1467.52
	726	8.08182	1.74029E-001	-5.95838E-006	0.00000E+000	1.74040E-001	0.00000E+000	9	...........	1467.52
	731	8.1374	1.69032E-001	-6.32379E-006	0.00000E+000	1.69029E-001	0.00000E+000	9	...........	1467.49
[...]
	800	8.90445	1.00007E-001	-1.19705E-005	0.00000E+000	1.00003E-001	0.00000E+000	9	...........	1467.43
CURVE3	TABLE
	Pt	T	Vf	Im	Vu	Sig	Ach	IERange	Over	Temp
	#	s	V vs. Ref.	A	V	V	V	#	bits	deg C
	801	8.91557	1.00961E-001	-9.44627E-006	0.00000E+000	1.01003E-001	0.00000E+000	9	...........	1467.43
	806	8.97115	1.05966E-001	-8.19548E-006	0.00000E+000	1.06001E-001	0.00000E+000	9	...........	1467.43
	811	9.02673	1.10976E-001	-7.33797E-006	0.00000E+000	1.11012E-001	0.00000E+000	9	...........	1467.43
	816	9.08232	1.15986E-001	-6.65181E-006	0.00000E+000	1.16010E-001	0.00000E+000	9	...........	1467.43
	821	9.1379	1.20968E-001	-6.02764E-006	0.00000E+000	1.21008E-001	0.00000E+000	9	...........	1467.43
	826	9.19348	1.25971E-001	-5.41421E-006	0.00000E+000	1.26019E-001	0.00000E+000	9	...........	1467.43
	831	9.24907	1.30990E-001	-4.86081E-006	0.00000E+000	1.31017E-001	0.00000E+000	9	...........	1467.43
	836	9.30465	1.35984E-001	-4.36289E-006	0.00000E+000	1.36015E-001	0.00000E+000	9	...........	1467.43
	841	9.36023	1.41014E-001	-3.90461E-006	0.00000E+000	1.41026E-001	0.00000E+000	9	...........	1467.43
	846	9.41582	1.45990E-001	-3.49881E-006	0.00000E+000	1.46024E-001	0.00000E+000	9	...........	1467.43
	851	9.4714	1.50972E-001	-3.07732E-006	0.00000E+000	1.51023E-001	0.00000E+000	9	...........	1467.43
	856	9.527	1.55997E-001	-2.64636E-006	0.00000E+000	1.56034E-001	0.00000E+000	9	...........	1467.43
	861	9.5826	1.60989E-001	-2.30316E-006	0.00000E+000	1.61032E-001	0.00000E+000	9	...........	1467.43
	866	9.6382	1.65966E-001	-1.98797E-006	0.00000E+000	1.66030E-001	0.00000E+000	9	...........	1467.43
	871	9.6937	1.70996E-001	-1.66591E-006	0.00000E+000	1.71041E-001	0.00000E+000	9	...........	1467.43
	876	9.7493	1.76002E-001	-1.31228E-006	0.00000E+000	1.76039E-001	0.00000E+000	9	...........	1467.43
	881	9.8049	1.81003E-001	-1.00045E-006	0.00000E+000	1.81037E-001	0.00000E+000	9	...........	1467.43
	886	9.8605	1.86014E-001	-7.24303E-007	0.00000E+000	1.86048E-001	0.00000E+000	9	...........	1467.43
	891	9.9161	1.90982E-001	-4.68603E-007	0.00000E+000	1.91046E-001	0.00000E+000	9	...........	1467.43
	896	9.9717	1.96002E-001	-1.84186E-007	0.00000E+000	1.96045E-001	0.00000E+000	9	...........	1467.43
	901	10.0272	2.01007E-001	1.01635E-007	0.00000E+000	2.01055E-001	0.00000E+000	9	...........	1467.43
	906	10.0828	2.06020E-001	3.41848E-007	0.00000E+000	2.06054E-001	0.00000E+000	9	...........	1467.43
	911	10.1384	2.11003E-001	5.60010E-007	0.00000E+000	2.11052E-001	0.00000E+000	9	...........	1467.48
	916	10.194	2.16009E-001	7.90250E-007	0.00000E+000	2.16063E-001	0.00000E+000	9	...........	1467.52
	921	10.2496	2.21019E-001	1.04139E-006	0.00000E+000	2.21061E-001	0.00000E+000	9	...........	1467.52
	926	10.3052	2.26007E-001	1.26892E-006	0.00000E+000	2.26059E-001	0.00000E+000	9	...........	1467.52
	931	10.3607	2.31037E-001	1.45341E-006	0.00000E+000	2.31070E-001	0.00000E+000	9	...........	1467.52
	936	10.4163	2.36022E-001	1.62807E-006	0.00000E+000	2.36068E-001	0.00000E+000	9	...........	1467.52
	941	10.4719	2.41012E-001	1.82478E-006	0.00000E+000	2.41066E-001	0.00000E+000	9	...........	1467.52
	946	10.5275	2.46020E-001	2.02785E-006	0.00000E+000	2.46077E-001	0.00000E+000	9	...........	1467.52
	951	10.5831	2.51027E-001	2.20557E-006	0.00000E+000	2.51075E-001	0.00000E+000	9	...........	1467.52
	956	10.6386	2.56023E-001	2.34951E-006	0.00000E+000	2.56074E-001	0.00000E+000	9	...........	1467.52
	961	10.6942	2.61031E-001	2.51364E-006	0.00000E+000	2.61084E-001	0.00000E+000	9	...........	1467.52
	966	10.7498	2.66039E-001	2.69607E-006	0.00000E+000	2.66083E-001	0.00000E+000	9	...........	1467.52
	971	10.8054	2.71047E-001	2.88146E-006	0.00000E+000	2.71081E-001	0.00000E+000	9	...........	1467.52
	976	10.861	2.76053E-001	3.03241E-006	0.00000E+000	2.76092E-001	0.00000E+000	9	...........	1467.52
	981	10.9166	2.81028E-001	3.16778E-006	0.00000E+000	2.81090E-001	0.00000E+000	9	...........	1467.52
	986	10.9721	2.86038E-001	3.34765E-006	0.00000E+000	2.86088E-001	0.00000E+000	9	...........	1467.52
	991	11.0277	2.91038E-001	3.53714E-006	0.00000E+000	2.91099E-001	0.00000E+000	9	...........	1467.52
	996	11.0833	2.96057E-001	3.70810E-006	0.00000E+000	2.96097E-001	0.00000E+000	9	...........	1467.52
	1001	11.1389	2.99097E-001	1.40865E-006	0.00000E+000	2.99096E-001	0.00000E+000	9	...........	1467.52
	1006	11.1945	2.94084E-001	5.28186E-007	0.00000E+000	2.94098E-001	0.00000E+000	9	...........	1467.52
	1011	11.2501	2.89105E-001	7.96332E-008	0.00000E+000	2.89100E-001	0.00000E+000	9	...........	1467.52
	1016	11.3056	2.84084E-001	-2.46833E-007	0.00000E+000	2.84089E-001	0.00000E+000	9	...........	1467.52
	1021	11.3612	2.79066E-001	-5.61170E-007	0.00000E+000	2.79091E-001	0.00000E+000	9	...........	1467.52
	1026	11.4168	2.74076E-001	-8.67188E-007	0.00000E+000	2.74092E-001	0.00000E+000	9	...........	1467.52
	1031	11.4724	2.69093E-001	-1.13171E-006	0.00000E+000	2.69082E-001	0.00000E+000	9	...........	1467.52
	1036	11.528	2.64076E-001	-1.33864E-006	0.00000E+000	2.64083E-001	0.00000E+000	9	...........	1467.52
	1041	11.5836	2.59089E-001	-1.56222E-006	0.00000E+000	2.59085E-001	0.00000E+000	9	...........	1467.52
	1046	11.6391	2.54059E-001	-1.80288E-006	0.00000E+000	2.54074E-001	0.00000E+000	9	...........	1467.52
	1051	11.6947	2.49080E-001	-2.03703E-006	0.00000E+000	2.49076E-001	0.00000E+000	9	...........	1467.52
	1056	11.7503	2.44089E-001	-2.24918E-006	0.00000E+000	2.44078E-001	0.00000E+000	9	...........	1467.52
	1061	11.8059	2.39058E-001	-2.43888E-006	0.00000E+000	2.39067E-001	0.00000E+000	9	...........	1467.52
	1066	11.8615	2.34074E-001	-2.66977E-006	0.00000E+000	2.34069E-001	0.00000E+000	9	...........	1467.52
	1071	11.9171	2.29076E-001	-2.91133E-006	0.00000E+000	2.29071E-001	0.00000E+000	9	...........	1467.52
	1076	11.9727	2.24070E-001	-3.14238E-006	0.00000E+000	2.24060E-001	0.00000E+000	9	...........	1467.52
	1081	12.0282	2.19058E-001	-3.36665E-006	0.00000E+000	2.19062E-001	0.00000E+000	9	...........	1467.52
	1086	12.0838	2.14037E-001	-3.60977E-006	0.00000E+000	2.14051E-001	0.00000E+000	9	...........	1467.52
	1091	12.1394	2.09049E-001	-3.86933E-006	0.00000E+000	2.09053E-001	0.00000E+000	9	...........	1467.63
	1096	12.195	2.04053E-001	-4.15460E-006	0.00000E+000	2.04054E-001	0.00000E+000	9	...........	1467.70
	1101	12.2506	1.99063E-001	-4.43556E-006	0.00000E+000	1.99043E-001	0.00000E+000	9	...........	1467.70
	1106	12.3062	1.94069E-001	-4.69171E-006	0.00000E+000	1.94045E-001	0.00000E+000	9	...........	1467.70
	1111	12.3617	1.89045E-001	-4.98695E-006	0.00000E+000	1.89047E-001	0.00000E+000	9	...........	1467.70
	1116	12.4173	1.84041E-001	-5.33567E-006	0.00000E+000	1.84036E-001	0.00000E+000	9	...........	1467.70
	1121	12.4729	1.79020E-001	-5.64510E-006	0.00000E+000	1.79038E-001	0.00000E+000	9	...........	1467.70
	1126	12.5285	1.74045E-001	-5.95918E-006	0.00000E+000	1.74040E-001	0.00000E+000	9	...........	1467.70
	1131	12.5841	1.69039E-001	-6.27853E-006	0.00000E+000	1.69029E-001	0.00000E+000	9	...........	1467.70
	1136	12.6397	1.64022E-001	-6.61768E-006	0.00000E+000	1.64031E-001	0.00000E+000	9	...........	1467.70
	1141	12.6952	1.59019E-001	-6.98649E-006	0.00000E+000	1.59032E-001	0.00000E+000	9	...........	1467.70
	1146	12.7508	1.54012E-001	-7.33190E-006	0.00000E+000	1.54022E-001	0.00000E+000	9	...........	1467.70
	1151	12.8064	1.49017E-001	-7.67721E-006	0.00000E+000	1.49023E-001	0.00000E+000	9	...........	1467.70
	1156	12.862	1.44016E-001	-8.04468E-006	0.00000E+000	1.44025E-001	0.00000E+000	9	...........	1467.70
	1161	12.9176	1.39009E-001	-8.45348E-006	0.00000E+000	1.39014E-001	0.00000E+000	9	...........	1467.70
	1166	12.9732	1.34016E-001	-8.86220E-006	0.00000E+000	1.34016E-001	0.00000E+000	9	...........	1467.70
	1171	13.0287	1.29031E-001	-9.25792E-006	0.00000E+000	1.29018E-001	0.00000E+000	9	...........	1467.70
	1176	13.0843	1.24010E-001	-9.66603E-006	0.00000E+000	1.24007E-001	0.00000E+000	9	...........	1467.70
	1181	13.1399	1.19021E-001	-1.01240E-005	0.00000E+000	1.19009E-001	0.00000E+000	9	...........	1467.65
	1186	13.1955	1.13998E-001	-1.06003E-005	0.00000E+000	1.14011E-001	0.00000E+000	9	...........	1467.61
	1191	13.2511	1.09008E-001	-1.10852E-005	0.00000E+000	1.09000E-001	0.00000E+000	9	...........	1467.61
	1196	13.3067	1.04020E-001	-1.15586E-005	0.00000E+000	1.04002E-001	0.00000E+000	9	...........	1467.61
	1200	13.3511	1.00007E-001	-1.19943E-005	0.00000E+000	1.00003E-001	0.00000E+000	9	...........	1467.61
CURVE4	TABLE
	Pt	T	Vf	Im	Vu	Sig	Ach	IERange	Over	Temp
	#	s	V vs. Ref.	A	V	V	V	#	bits	deg C
	1201	13.3622	9.99903E-002	-1.07323E-005	0.00000E+000	1.00003E-001	0.00000E+000	9	...........	1467.61