File: input/ECSA_test/CV_ECSA_#2_#6.DTA
EXPLAIN
TAG	CV
TITLE	LABEL	ECSA	Test Identifier
DATE	LABEL	2/13/2024	Date
TIME	LABEL	12:04:49	Time
NOTES	NOTES	1	Notes...

PSTAT	PSTAT	IFC1010-36068	Potentiostat
VINIT	POTEN	1.00000E-001	F	Initial E (V)
VLIMIT1	POTEN	3.00000E-001	F	Scan Limit 1 (V)
VLIMIT2	POTEN	1.00000E-001	F	Scan Limit 2 (V)
VFINAL	POTEN	1.00000E-001	F	Final E (V)
SCANRATE	QUANT	5.99999E+001	A Real Number
STEPSIZE	QUANT	1.00000E+000	Step Size (mV)
CYCLES	IQUANT	3	Cycles (#)
IMODE	SELECTOR	1	I/E Range Mode
IRANGE	QUANT	3.00000E-001	Max Current (mA)
AREA	QUANT	1.00000E+000	Sample Area (cm^2)
EQDELAY	QUANT	0.00000E+000	Equil. Time (s)
IRCOMP	SELECTOR	0	IRComp
PFCOR	QUANT	5.00000E+001	PF Corr. (ohm)
SAMPLINGMODE	SELECTOR	2	Sampling Mode
EOC	QUANT	0.3246219	Open Circuit (V)
ELECTRODETYPE	SELECTOR	0	Electrode Type
STRIPPING	TOGGLE	F	Used for Stripping
SEQUENCER	TOGGLE	TRUE	Run as Sequence
PSTATMODEL	IQUANT	64	Pstat Model
PSTATSECTION	LABEL	IFC1010-36068	Pstat Section
PSTATSERIALNO	LABEL	36068	Pstat Serial Number
CTRLMODE	IQUANT	1	Control Mode
ELECTROMETER	IQUANT	0	RE=0 or CS=1
IESTAB	IQUANT	2	I/E Stability
CASPEED	IQUANT	4	Control Amp Speed
CONVENTION	IQUANT	1	Current Convention
ICHRANGE	IQUANT	2	Ich Range
ICHRANGEMODE	TOGGLE	F	Ich Auto Range
ICHOFFSETENABLE	TOGGLE	F	Ich Offset Enable
ICHOFFSET	QUANT	0	Ich Offset (V)
ICHFILTER	IQUANT	3	Ich Filter
VCHRANGE	IQUANT	2	Vch Range
VCHRANGEMODE	TOGGLE	F	Vch Auto Range
VCHOFFSETENABLE	TOGGLE	F	Vch Offset Enable
VCHOFFSET	QUANT	0	Vch Offset (V)
VCHFILTER	IQUANT	3	Vch Filter
IERANGELOWERLIMIT	IQUANT	4	I/E Range Lower Limit
IERANGEMODE	TOGGLE	F	I/E AutoRange
IERANGE	IQUANT	9	I/E Range
ACHSELECT	IQUANT	0	Ach Select
ACHRANGE	IQUANT	2	Ach Range
ACHOFFSETENABLE	TOGGLE	F	Ach Offset Enable
ACHOFFSET	QUANT	0	Ach Offset (V)
ACHFILTER	IQUANT	1	Ach Filter
SENSECABLEID	IQUANT	13	Sense Cable ID
PWRCABLEID	IQUANT	13	Power Cable ID
DCCALDATE	LABEL	8/11/2023	DC Calibration Date
ACCALDATE	LABEL	6/2/2023	AC Calibration Date
FRAMEWORKVERSION	LABEL	7.10.3	Framework Version
INSTRUMENTVERSION	LABEL	4.91	Instrument Version
COMMVERSION	LABEL	3.10	Communications Version
CPUPLDVERSION	LABEL	2.22	CPU PLD Version
CTRLPLDVERSION	LABEL	0.00	CTRL PLD Version
PSTATPLDVERSION	LABEL	0.00	PSTAT PLD Version
CURVE1	TABLE
	Pt	T	Vf	Im	Vu	Sig	Ach	IERange	Over	Temp
	#	s	V vs. Ref.	A	V	V	V	#	bits	deg C
	0	0.016667	9.99973E-002	-2.78554E-006	0.00000E+000	1.00003E-001	0.00000E+000	9	...........	1467.61
	4	0.083333	1.03988E-001	-1.44186E-006	0.00000E+000	1.04002E-001	0.00000E+000	9	...........	1467.61
	8	0.15	1.07966E-001	-1.14534E-006	0.00000E+000	1.08000E-001	0.00000E+000	9	...........	1467.61
	12	0.216667	1.11960E-001	-9.12245E-007	0.00000E+000	1.11999E-001	0.00000E+000	9	...........	1467.57
	16	0.283333	1.15980E-001	-7.04261E-007	0.00000E+000	1.15997E-001	0.00000E+000	9	...........	1467.52
	20	0.35	1.19974E-001	-5.19053E-007	0.00000E+000	1.19996E-001	0.00000E+000	9	...........	1467.52
	24	0.416667	1.23959E-001	-3.62664E-007	0.00000E+000	1.23995E-001	0.00000E+000	9	...........	1467.52
	28	0.483333	1.27983E-001	-1.95722E-007	0.00000E+000	1.28006E-001	0.00000E+000	9	...........	1467.52
	32	0.55	1.31985E-001	-4.19385E-008	0.00000E+000	1.32004E-001	0.00000E+000	9	...........	1467.52
	36	0.616667	1.35980E-001	8.85356E-008	0.00000E+000	1.36003E-001	0.00000E+000	9	...........	1467.52
	40	0.683333	1.39970E-001	2.30231E-007	0.00000E+000	1.40002E-001	0.00000E+000	9	...........	1467.52
	44	0.75	1.43983E-001	3.56063E-007	0.00000E+000	1.44000E-001	0.00000E+000	9	...........	1467.52
	48	0.816667	1.47981E-001	4.62693E-007	0.00000E+000	1.47999E-001	0.00000E+000	9	...........	1467.52
	52	0.883333	1.51960E-001	5.88759E-007	0.00000E+000	1.51997E-001	0.00000E+000	9	...........	1467.52
	56	0.95	1.55980E-001	7.01534E-007	0.00000E+000	1.55996E-001	0.00000E+000	9	...........	1467.52
	60	1.01667	1.59975E-001	7.91633E-007	0.00000E+000	1.59995E-001	0.00000E+000	9	...........	1467.52
	64	1.08333	1.63987E-001	9.18000E-007	0.00000E+000	1.64006E-001	0.00000E+000	9	...........	1467.52
	68	1.15	1.67993E-001	1.01401E-006	0.00000E+000	1.68004E-001	0.00000E+000	9	...........	1467.52
	72	1.21667	1.71972E-001	1.09847E-006	0.00000E+000	1.72003E-001	0.00000E+000	9	...........	1467.52
	76	1.28333	1.75980E-001	1.21428E-006	0.00000E+000	1.76002E-001	0.00000E+000	9	...........	1467.52
	80	1.35	1.79971E-001	1.31026E-006	0.00000E+000	1.80000E-001	0.00000E+000	9	...........	1467.52
	84	1.41667	1.83977E-001	1.39071E-006	0.00000E+000	1.83999E-001	0.00000E+000	9	...........	1467.52
	88	1.48333	1.87983E-001	1.49209E-006	0.00000E+000	1.87997E-001	0.00000E+000	9	...........	1467.52
	92	1.55	1.92001E-001	1.57184E-006	0.00000E+000	1.91996E-001	0.00000E+000	9	...........	1467.52
	96	1.61667	1.95982E-001	1.65984E-006	0.00000E+000	1.95995E-001	0.00000E+000	9	...........	1467.52
	100	1.68333	1.99987E-001	1.75167E-006	0.00000E+000	2.00006E-001	0.00000E+000	9	...........	1467.52
	104	1.75	2.03968E-001	1.83984E-006	0.00000E+000	2.04004E-001	0.00000E+000	9	...........	1467.52
	108	1.81667	2.07973E-001	1.91821E-006	0.00000E+000	2.08003E-001	0.00000E+000	9	...........	1467.52
	112	1.88333	2.11971E-001	2.01132E-006	0.00000E+000	2.12001E-001	0.00000E+000	9	...........	1467.52
	116	1.95	2.15957E-001	2.08616E-006	0.00000E+000	2.16000E-001	0.00000E+000	9	...........	1467.52
	120	2.01667	2.19967E-001	2.16420E-006	0.00000E+000	2.19999E-001	0.00000E+000	9	...........	1467.52
	124	2.08333	2.23978E-001	2.25417E-006	0.00000E+000	2.23997E-001	0.00000E+000	9	...........	1467.52
	128	2.15	2.27967E-001	2.32997E-006	0.00000E+000	2.27996E-001	0.00000E+000	9	...........	1467.52
	132	2.21667	2.31979E-001	2.40110E-006	0.00000E+000	2.31994E-001	0.00000E+000	9	...........	1467.52
	136	2.28333	2.35976E-001	2.49368E-006	0.00000E+000	2.36006E-001	0.00000E+000	9	...........	1467.52
	140	2.35	2.39974E-001	2.56517E-006	0.00000E+000	2.40004E-001	0.00000E+000	9	...........	1467.52
	144	2.41667	2.43983E-001	2.63644E-006	0.00000E+000	2.44003E-001	0.00000E+000	9	...........	1467.52
	148	2.48333	2.47963E-001	2.72253E-006	0.00000E+000	2.48001E-001	0.00000E+000	9	...........	1467.52
	152	2.55	2.51952E-001	2.79052E-006	0.00000E+000	2.52000E-001	0.00000E+000	9	...........	1467.52
	156	2.61667	2.55956E-001	2.87374E-006	0.00000E+000	2.55999E-001	0.00000E+000	9	...........	1467.52
	160	2.68333	2.59954E-001	2.96839E-006	0.00000E+000	2.59997E-001	0.00000E+000	9	...........	1467.52
	164	2.75	2.63957E-001	3.04205E-006	0.00000E+000	2.63996E-001	0.00000E+000	9	...........	1467.52
	168	2.81667	2.67955E-001	3.12120E-006	0.00000E+000	2.67994E-001	0.00000E+000	9	...........	1467.52
	172	2.88333	2.71977E-001	3.22713E-006	0.00000E+000	2.72006E-001	0.00000E+000	9	...........	1467.52
	176	2.95	2.75979E-001	3.30197E-006	0.00000E+000	2.76004E-001	0.00000E+000	9	...........	1467.52
	180	3.01667	2.79967E-001	3.39103E-006	0.00000E+000	2.80003E-001	0.00000E+000	9	...........	1467.52
	184	3.08333	2.83995E-001	3.49295E-006	0.00000E+000	2.84001E-001	0.00000E+000	9	...........	1467.52
	188	3.15	2.87980E-001	3.57651E-006	0.00000E+000	2.88000E-001	0.00000E+000	9	...........	1467.52
	192	3.21667	2.91957E-001	3.67068E-006	0.00000E+000	2.91999E-001	0.00000E+000	9	...........	1467.52
	196	3.28333	2.95983E-001	3.78349E-006	0.00000E+000	2.95997E-001	0.00000E+000	9	...........	1467.52
	200	3.35	2.99973E-001	3.88060E-006	0.00000E+000	2.99996E-001	0.00000E+000	9	...........	1467.52
	204	3.41667	2.96001E-001	1.52018E-006	0.00000E+000	2.95997E-001	0.00000E+000	9	...........	1467.52
	208	3.48333	2.91997E-001	1.19017E-006	0.00000E+000	2.91999E-001	0.00000E+000	9	...........	1467.52
	212	3.55	2.88003E-001	9.38304E-007	0.00000E+000	2.88000E-001	0.00000E+000	9	...........	1467.52
	216	3.61667	2.84003E-001	7.40172E-007	0.00000E+000	2.84001E-001	0.00000E+000	9	...........	1467.52
	220	3.68333	2.79990E-001	5.81880E-007	0.00000E+000	2.80003E-001	0.00000E+000	9	...........	1467.52
	224	3.75	2.76003E-001	4.11098E-007	0.00000E+000	2.76004E-001	0.00000E+000	9	...........	1467.52
	228	3.81667	2.72005E-001	2.72108E-007	0.00000E+000	2.72006E-001	0.00000E+000	9	...........	1467.52
	232	3.88333	2.67981E-001	1.62506E-007	0.00000E+000	2.67994E-001	0.00000E+000	9	...........	1467.52
	236	3.95	2.63985E-001	3.18310E-008	0.00000E+000	2.63996E-001	0.00000E+000	9	...........	1467.52
	240	4.01667	2.59986E-001	-8.02426E-008	0.00000E+000	2.59997E-001	0.00000E+000	9	...........	1467.52
	244	4.08333	2.55992E-001	-1.78190E-007	0.00000E+000	2.55999E-001	0.00000E+000	9	...........	1467.52
	248	4.15	2.51990E-001	-3.02753E-007	0.00000E+000	2.52000E-001	0.00000E+000	9	...........	1467.52
	252	4.21667	2.48004E-001	-4.01536E-007	0.00000E+000	2.48001E-001	0.00000E+000	9	...........	1467.52
	256	4.28333	2.44014E-001	-4.85457E-007	0.00000E+000	2.44003E-001	0.00000E+000	9	...........	1467.52
	260	4.35	2.40011E-001	-5.93791E-007	0.00000E+000	2.40004E-001	0.00000E+000	9	...........	1467.52
	264	4.41667	2.36000E-001	-6.93608E-007	0.00000E+000	2.36006E-001	0.00000E+000	9	...........	1467.52
	268	4.48333	2.32001E-001	-7.79266E-007	0.00000E+000	2.31994E-001	0.00000E+000	9	...........	1467.52
	272	4.55	2.27986E-001	-8.80186E-007	0.00000E+000	2.27996E-001	0.00000E+000	9	...........	1467.52
	276	4.61667	2.24011E-001	-9.74059E-007	0.00000E+000	2.23997E-001	0.00000E+000	9	...........	1467.52
	280	4.68333	2.19997E-001	-1.05531E-006	0.00000E+000	2.19999E-001	0.00000E+000	9	...........	1467.52
	284	4.75	2.15991E-001	-1.15837E-006	0.00000E+000	2.16000E-001	0.00000E+000	9	...........	1467.52
	288	4.81667	2.11997E-001	-1.24603E-006	0.00000E+000	2.12001E-001	0.00000E+000	9	...........	1467.52
	292	4.88333	2.07999E-001	-1.32404E-006	0.00000E+000	2.08003E-001	0.00000E+000	9	...........	1467.52
	296	4.95	2.03999E-001	-1.42623E-006	0.00000E+000	2.04004E-001	0.00000E+000	9	...........	1467.52
	300	5.01667	2.00013E-001	-1.52351E-006	0.00000E+000	2.00006E-001	0.00000E+000	9	...........	1467.52
	304	5.08333	1.95992E-001	-1.59774E-006	0.00000E+000	1.95995E-001	0.00000E+000	9	...........	1467.52
	308	5.15	1.92012E-001	-1.70928E-006	0.00000E+000	1.91996E-001	0.00000E+000	9	...........	1467.52
	312	5.21667	1.87999E-001	-1.80483E-006	0.00000E+000	1.87997E-001	0.00000E+000	9	...........	1467.52
	316	5.28333	1.84009E-001	-1.88788E-006	0.00000E+000	1.83999E-001	0.00000E+000	9	...........	1467.52
	320	5.35	1.80003E-001	-1.99845E-006	0.00000E+000	1.80000E-001	0.00000E+000	9	...........	1467.52
	324	5.41667	1.76004E-001	-2.09867E-006	0.00000E+000	1.76002E-001	0.00000E+000	9	...........	1467.52
	328	5.48333	1.71997E-001	-2.18643E-006	0.00000E+000	1.72003E-001	0.00000E+000	9	...........	1467.52
	332	5.55	1.68014E-001	-2.29754E-006	0.00000E+000	1.68004E-001	0.00000E+000	9	...........	1467.52
	336	5.61667	1.64005E-001	-2.39348E-006	0.00000E+000	1.64006E-001	0.00000E+000	9	...........	1467.52
	340	5.68333	1.59997E-001	-2.48772E-006	0.00000E+000	1.59995E-001	0.00000E+000	9	...........	1467.52
	344	5.75	1.55997E-001	-2.60377E-006	0.00000E+000	1.55996E-001	0.00000E+000	9	...........	1467.52
	348	5.81667	1.51986E-001	-2.70679E-006	0.00000E+000	1.51997E-001	0.00000E+000	9	...........	1467.52
	352	5.88333	1.48013E-001	-2.78991E-006	0.00000E+000	1.47999E-001	0.00000E+000	9	...........	1467.52
	356	5.95	1.44012E-001	-2.90255E-006	0.00000E+000	1.44000E-001	0.00000E+000	9	...........	1467.52
	360	6.01667	1.39999E-001	-3.00270E-006	0.00000E+000	1.40002E-001	0.00000E+000	9	...........	1467.52
	364	6.08333	1.36002E-001	-3.09678E-006	0.00000E+000	1.36003E-001	0.00000E+000	9	...........	1467.52
	368	6.15	1.32029E-001	-3.20935E-006	0.00000E+000	1.32004E-001	0.00000E+000	9	...........	1467.52
	372	6.21667	1.28013E-001	-3.31051E-006	0.00000E+000	1.28006E-001	0.00000E+000	9	...........	1467.52
	376	6.28333	1.23983E-001	-3.40364E-006	0.00000E+000	1.23995E-001	0.00000E+000	9	...........	1467.52
	380	6.35	1.20010E-001	-3.51512E-006	0.00000E+000	1.19996E-001	0.00000E+000	9	...........	1467.52
	384	6.41667	1.16017E-001	-3.61306E-006	0.00000E+000	1.15997E-001	0.00000E+000	9	...........	1467.52
	388	6.48333	1.11985E-001	-3.71445E-006	0.00000E+000	1.11999E-001	0.00000E+000	9	...........	1467.52
	392	6.55	1.07994E-001	-3.83227E-006	0.00000E+000	1.08000E-001	0.00000E+000	9	...........	1467.52
	396	6.61667	1.04014E-001	-3.93696E-006	0.00000E+000	1.04002E-001	0.00000E+000	9	...........	1467.52
	400	6.68333	1.00013E-001	-4.03578E-006	0.00000E+000	1.00003E-001	0.00000E+000	9	...........	1467.52
CURVE2	TABLE
	Pt	T	Vf	Im	Vu	Sig	Ach	IERange	Over	Temp
	#	s	V vs. Ref.	A	V	V	V	#	bits	deg C
	401	6.7	1.00984E-001	-2.16703E-006	0.00000E+000	1.01003E-001	0.00000E+000	9	...........	1467.52
	405	6.76667	1.04979E-001	-1.62366E-006	0.00000E+000	1.05001E-001	0.00000E+000	9	...........	1467.52
	409	6.83333	1.08988E-001	-1.31559E-006	0.00000E+000	1.09000E-001	0.00000E+000	9	...........	1467.52
	413	6.9	1.12971E-001	-1.03607E-006	0.00000E+000	1.12999E-001	0.00000E+000	9	...........	1467.52
	417	6.96667	1.16979E-001	-8.20242E-007	0.00000E+000	1.16997E-001	0.00000E+000	9	...........	1467.52
	421	7.03333	1.20980E-001	-6.23479E-007	0.00000E+000	1.20996E-001	0.00000E+000	9	...........	1467.52
	425	7.1	1.24975E-001	-4.31491E-007	0.00000E+000	1.24994E-001	0.00000E+000	9	...........	1467.52
	429	7.16667	1.28999E-001	-2.71963E-007	0.00000E+000	1.29005E-001	0.00000E+000	9	...........	1467.52
	433	7.23333	1.32994E-001	-1.21519E-007	0.00000E+000	1.33004E-001	0.00000E+000	9	...........	1467.52
	437	7.3	1.36977E-001	3.74413E-008	0.00000E+000	1.37003E-001	0.00000E+000	9	...........	1467.52
	441	7.36667	1.40988E-001	1.65812E-007	0.00000E+000	1.41001E-001	0.00000E+000	9	...........	1467.52
	445	7.43333	1.44973E-001	2.82394E-007	0.00000E+000	1.45000E-001	0.00000E+000	9	...........	1467.52
	449	7.5	1.48970E-001	4.22753E-007	0.00000E+000	1.48998E-001	0.00000E+000	9	...........	1467.52
	453	7.56667	1.52956E-001	5.32455E-007	0.00000E+000	1.52997E-001	0.00000E+000	9	...........	1467.52
	457	7.63333	1.56989E-001	6.43393E-007	0.00000E+000	1.56996E-001	0.00000E+000	9	...........	1467.52
	461	7.7	1.60973E-001	7.61578E-007	0.00000E+000	1.60994E-001	0.00000E+000	9	...........	1467.52
	465	7.76667	1.64968E-001	8.70646E-007	0.00000E+000	1.65005E-001	0.00000E+000	9	...........	1467.52
	469	7.83333	1.68986E-001	9.74938E-007	0.00000E+000	1.69004E-001	0.00000E+000	9	...........	1467.52
	473	7.9	1.72981E-001	1.08962E-006	0.00000E+000	1.73003E-001	0.00000E+000	9	...........	1467.52
	477	7.96667	1.76968E-001	1.18389E-006	0.00000E+000	1.77001E-001	0.00000E+000	9	...........	1467.52
	481	8.03333	1.80994E-001	1.27272E-006	0.00000E+000	1.81000E-001	0.00000E+000	9	...........	1467.52
	485	8.1	1.84979E-001	1.37117E-006	0.00000E+000	1.84998E-001	0.00000E+000	9	...........	1467.52
	489	8.16667	1.88974E-001	1.45629E-006	0.00000E+000	1.88997E-001	0.00000E+000	9	...........	1467.52
	493	8.23333	1.92994E-001	1.54456E-006	0.00000E+000	1.92996E-001	0.00000E+000	9	...........	1467.52
	497	8.3	1.96967E-001	1.64788E-006	0.00000E+000	1.96994E-001	0.00000E+000	9	...........	1467.52
	501	8.36667	2.00961E-001	1.72335E-006	0.00000E+000	2.01005E-001	0.00000E+000	9	...........	1467.52
	505	8.43333	2.04977E-001	1.81105E-006	0.00000E+000	2.05004E-001	0.00000E+000	9	...........	1467.52
	509	8.5	2.08972E-001	1.90429E-006	0.00000E+000	2.09003E-001	0.00000E+000	9	...........	1467.52
	513	8.56667	2.12961E-001	1.97976E-006	0.00000E+000	2.13001E-001	0.00000E+000	9	...........	1467.52
	517	8.63333	2.16951E-001	2.05994E-006	0.00000E+000	2.17000E-001	0.00000E+000	9	...........	1467.52
	521	8.7	2.20968E-001	2.15508E-006	0.00000E+000	2.20998E-001	0.00000E+000	9	...........	1467.52
	525	8.76667	2.24950E-001	2.22959E-006	0.00000E+000	2.24997E-001	0.00000E+000	9	...........	1467.52
	529	8.83333	2.28954E-001	2.31004E-006	0.00000E+000	2.28996E-001	0.00000E+000	9	...........	1467.52
	533	8.9	2.32979E-001	2.39980E-006	0.00000E+000	2.32994E-001	0.00000E+000	9	...........	1467.52
	537	8.96667	2.36966E-001	2.47354E-006	0.00000E+000	2.37005E-001	0.00000E+000	9	...........	1467.52
	541	9.03333	2.40956E-001	2.54587E-006	0.00000E+000	2.41004E-001	0.00000E+000	9	...........	1467.52
	545	9.1	2.44981E-001	2.64202E-006	0.00000E+000	2.45002E-001	0.00000E+000	9	...........	1467.52
	549	9.16667	2.48966E-001	2.71084E-006	0.00000E+000	2.49001E-001	0.00000E+000	9	...........	1467.52
	553	9.23333	2.52954E-001	2.78478E-006	0.00000E+000	2.53000E-001	0.00000E+000	9	...........	1467.61
	557	9.3	2.56968E-001	2.88323E-006	0.00000E+000	2.56998E-001	0.00000E+000	9	...........	1467.61
	561	9.36667	2.60964E-001	2.95513E-006	0.00000E+000	2.60997E-001	0.00000E+000	9	...........	1467.61
	565	9.43333	2.64948E-001	3.03317E-006	0.00000E+000	2.64995E-001	0.00000E+000	9	...........	1467.61
	569	9.5	2.68981E-001	3.13185E-006	0.00000E+000	2.68994E-001	0.00000E+000	9	...........	1467.61
	573	9.5667	2.72976E-001	3.22215E-006	0.00000E+000	2.73005E-001	0.00000E+000	9	...........	1467.61
	577	9.6333	2.76974E-001	3.29773E-006	0.00000E+000	2.77004E-001	0.00000E+000	9	...........	1467.61
	581	9.7	2.80965E-001	3.40913E-006	0.00000E+000	2.81002E-001	0.00000E+000	9	...........	1467.61
	585	9.7667	2.84983E-001	3.48006E-006	0.00000E+000	2.85001E-001	0.00000E+000	9	...........	1467.61
	589	9.8333	2.88979E-001	3.58138E-006	0.00000E+000	2.89000E-001	0.00000E+000	9	...........	1467.61
	593	9.9	2.92964E-001	3.69045E-006	0.00000E+000	2.92998E-001	0.00000E+000	9	...........	1467.61
[...]
	797	13.3	1.03023E-001	-3.97924E-006	0.00000E+000	1.03002E-001	0.00000E+000	9	...........	1467.61
	800	13.35	1.00012E-001	-4.06657E-006	0.00000E+000	1.00003E-001	0.00000E+000	9	...........	1467.61
CURVE3	TABLE
	Pt	T	Vf	Im	Vu	Sig	Ach	IERange	Over	Temp
	#	s	V vs. Ref.	A	V	V	V	#	bits	deg C
	801	13.3667	1.00981E-001	-2.19448E-006	0.00000E+000	1.01003E-001	0.00000E+000	9	...........	1467.61
	806	13.45	1.05981E-001	-1.55770E-006	0.00000E+000	1.06001E-001	0.00000E+000	9	...........	1467.61
	811	13.5333	1.10967E-001	-1.18712E-006	0.00000E+000	1.10999E-001	0.00000E+000	9	...........	1467.61
	816	13.6167	1.15983E-001	-8.88401E-007	0.00000E+000	1.15997E-001	0.00000E+000	9	...........	1467.61
	821	13.7	1.20972E-001	-6.39408E-007	0.00000E+000	1.20996E-001	0.00000E+000	9	...........	1467.61
	826	13.7833	1.25962E-001	-4.23075E-007	0.00000E+000	1.25994E-001	0.00000E+000	9	...........	1467.61
	831	13.8667	1.30986E-001	-2.21904E-007	0.00000E+000	1.31005E-001	0.00000E+000	9	...........	1467.61
	836	13.95	1.35983E-001	-2.75119E-008	0.00000E+000	1.36003E-001	0.00000E+000	9	...........	1467.61
	841	14.0333	1.40992E-001	1.47745E-007	0.00000E+000	1.41001E-001	0.00000E+000	9	...........	1467.61
	846	14.1167	1.45975E-001	3.17692E-007	0.00000E+000	1.46000E-001	0.00000E+000	9	...........	1467.61
	851	14.2	1.50962E-001	4.66967E-007	0.00000E+000	1.50998E-001	0.00000E+000	9	...........	1467.58
	856	14.2833	1.55976E-001	6.10933E-007	0.00000E+000	1.55996E-001	0.00000E+000	9	...........	1467.52
	861	14.3667	1.60965E-001	7.42009E-007	0.00000E+000	1.60994E-001	0.00000E+000	9	...........	1467.52
	866	14.45	1.65965E-001	8.72850E-007	0.00000E+000	1.66005E-001	0.00000E+000	9	...........	1467.52
	871	14.5333	1.70976E-001	1.01428E-006	0.00000E+000	1.71003E-001	0.00000E+000	9	...........	1467.52
	876	14.6167	1.75981E-001	1.15327E-006	0.00000E+000	1.76002E-001	0.00000E+000	9	...........	1467.52
	881	14.7	1.80984E-001	1.26588E-006	0.00000E+000	1.81000E-001	0.00000E+000	9	...........	1467.52
	886	14.7833	1.85980E-001	1.37074E-006	0.00000E+000	1.85998E-001	0.00000E+000	9	...........	1467.52
	891	14.8667	1.90970E-001	1.48758E-006	0.00000E+000	1.90996E-001	0.00000E+000	9	...........	1467.52
	896	14.95	1.95975E-001	1.60901E-006	0.00000E+000	1.95995E-001	0.00000E+000	9	...........	1467.52
	901	15.0333	2.00979E-001	1.71691E-006	0.00000E+000	2.01005E-001	0.00000E+000	9	...........	1467.52
	906	15.1167	2.05985E-001	1.82411E-006	0.00000E+000	2.06004E-001	0.00000E+000	9	...........	1467.52
	911	15.2	2.10967E-001	1.92262E-006	0.00000E+000	2.11002E-001	0.00000E+000	9	...........	1467.52
	916	15.2833	2.15952E-001	2.02351E-006	0.00000E+000	2.16000E-001	0.00000E+000	9	...........	1467.52
	921	15.3667	2.20972E-001	2.12670E-006	0.00000E+000	2.20998E-001	0.00000E+000	9	...........	1467.52
	926	15.45	2.25957E-001	2.23767E-006	0.00000E+000	2.25997E-001	0.00000E+000	9	...........	1467.52
	931	15.5333	2.30963E-001	2.34083E-006	0.00000E+000	2.30995E-001	0.00000E+000	9	...........	1467.52
	936	15.6167	2.35964E-001	2.44178E-006	0.00000E+000	2.36006E-001	0.00000E+000	9	...........	1467.52
	941	15.7	2.40962E-001	2.53706E-006	0.00000E+000	2.41004E-001	0.00000E+000	9	...........	1467.52
	946	15.7833	2.45969E-001	2.63019E-006	0.00000E+000	2.46002E-001	0.00000E+000	9	...........	1467.52
	951	15.8667	2.50975E-001	2.72413E-006	0.00000E+000	2.51000E-001	0.00000E+000	9	...........	1467.52
	956	15.95	2.55981E-001	2.83504E-006	0.00000E+000	2.55999E-001	0.00000E+000	9	...........	1467.52
	961	16.0333	2.60949E-001	2.93479E-006	0.00000E+000	2.60997E-001	0.00000E+000	9	...........	1467.52
	966	16.1167	2.65963E-001	3.03307E-006	0.00000E+000	2.65995E-001	0.00000E+000	9	...........	1467.52
	971	16.2	2.70989E-001	3.14491E-006	0.00000E+000	2.71006E-001	0.00000E+000	9	...........	1467.61
	976	16.2833	2.75970E-001	3.23504E-006	0.00000E+000	2.76004E-001	0.00000E+000	9	...........	1467.70
	981	16.3667	2.80959E-001	3.35416E-006	0.00000E+000	2.81002E-001	0.00000E+000	9	...........	1467.70
	986	16.45	2.85976E-001	3.48193E-006	0.00000E+000	2.86001E-001	0.00000E+000	9	...........	1467.70
	991	16.5333	2.90965E-001	3.62046E-006	0.00000E+000	2.90999E-001	0.00000E+000	9	...........	1467.70
	996	16.6167	2.95996E-001	3.75220E-006	0.00000E+000	2.95997E-001	0.00000E+000	9	...........	1467.70
	1001	16.7	2.99002E-001	1.95895E-006	0.00000E+000	2.98996E-001	0.00000E+000	9	...........	1467.70
	1006	16.7833	2.93987E-001	1.29850E-006	0.00000E+000	2.93998E-001	0.00000E+000	9	...........	1467.70
	1011	16.8667	2.88999E-001	9.60345E-007	0.00000E+000	2.89000E-001	0.00000E+000	9	...........	1467.70
	1016	16.95	2.84005E-001	7.09281E-007	0.00000E+000	2.84001E-001	0.00000E+000	9	...........	1467.70
	1021	17.0333	2.78983E-001	5.08177E-007	0.00000E+000	2.79003E-001	0.00000E+000	9	...........	1467.70
	1026	17.1167	2.74002E-001	3.11881E-007	0.00000E+000	2.74005E-001	0.00000E+000	9	...........	1467.70
	1031	17.2	2.69008E-001	1.41433E-007	0.00000E+000	2.68994E-001	0.00000E+000	9	...........	1467.57
	1036	17.2833	2.63977E-001	-1.47550E-008	0.00000E+000	2.63996E-001	0.00000E+000	9	...........	1467.43
	1041	17.3667	2.58991E-001	-1.47968E-007	0.00000E+000	2.58998E-001	0.00000E+000	9	...........	1467.43
	1046	17.45	2.53980E-001	-2.80011E-007	0.00000E+000	2.53999E-001	0.00000E+000	9	...........	1467.43
	1051	17.5333	2.48987E-001	-3.93154E-007	0.00000E+000	2.49001E-001	0.00000E+000	9	...........	1467.43
	1056	17.6167	2.44005E-001	-5.17216E-007	0.00000E+000	2.44003E-001	0.00000E+000	9	...........	1467.43
	1061	17.7	2.38997E-001	-6.48391E-007	0.00000E+000	2.39005E-001	0.00000E+000	9	...........	1467.43
	1066	17.7833	2.33999E-001	-7.85444E-007	0.00000E+000	2.33994E-001	0.00000E+000	9	...........	1467.43
	1071	17.8667	2.28997E-001	-8.89269E-007	0.00000E+000	2.28996E-001	0.00000E+000	9	...........	1467.43
	1076	17.95	2.24003E-001	-9.94430E-007	0.00000E+000	2.23997E-001	0.00000E+000	9	...........	1467.43
	1081	18.0333	2.18990E-001	-1.10777E-006	0.00000E+000	2.18999E-001	0.00000E+000	9	...........	1467.43
	1086	18.1167	2.13978E-001	-1.22499E-006	0.00000E+000	2.14001E-001	0.00000E+000	9	...........	1467.43
	1091	18.2	2.09008E-001	-1.34117E-006	0.00000E+000	2.09003E-001	0.00000E+000	9	...........	1467.48
	1096	18.2833	2.03998E-001	-1.46153E-006	0.00000E+000	2.04004E-001	0.00000E+000	9	...........	1467.52
	1101	18.3667	1.99017E-001	-1.57988E-006	0.00000E+000	1.99006E-001	0.00000E+000	9	...........	1467.52
	1106	18.45	1.94011E-001	-1.69092E-006	0.00000E+000	1.93995E-001	0.00000E+000	9	...........	1467.52
	1111	18.5333	1.88985E-001	-1.80352E-006	0.00000E+000	1.88997E-001	0.00000E+000	9	...........	1467.52
	1116	18.6167	1.83988E-001	-1.93016E-006	0.00000E+000	1.83999E-001	0.00000E+000	9	...........	1467.52
	1121	18.7	1.78976E-001	-2.05950E-006	0.00000E+000	1.79000E-001	0.00000E+000	9	...........	1467.52
	1126	18.7833	1.74000E-001	-2.19762E-006	0.00000E+000	1.74002E-001	0.00000E+000	9	...........	1467.52
	1131	18.8667	1.69018E-001	-2.31233E-006	0.00000E+000	1.69004E-001	0.00000E+000	9	...........	1467.52
	1136	18.95	1.64000E-001	-2.43529E-006	0.00000E+000	1.64006E-001	0.00000E+000	9	...........	1467.52
	1141	19.0333	1.58986E-001	-2.55788E-006	0.00000E+000	1.58995E-001	0.00000E+000	9	...........	1467.52
	1146	19.1167	1.53984E-001	-2.68933E-006	0.00000E+000	1.53997E-001	0.00000E+000	9	...........	1467.52
	1151	19.2	1.48993E-001	-2.82371E-006	0.00000E+000	1.48998E-001	0.00000E+000	9	...........	1467.52
	1156	19.2833	1.44004E-001	-2.95675E-006	0.00000E+000	1.44000E-001	0.00000E+000	9	...........	1467.52
	1161	19.3667	1.39000E-001	-3.08299E-006	0.00000E+000	1.39002E-001	0.00000E+000	9	...........	1467.52
	1166	19.45	1.34008E-001	-3.20197E-006	0.00000E+000	1.34004E-001	0.00000E+000	9	...........	1467.52
	1171	19.5333	1.29017E-001	-3.32517E-006	0.00000E+000	1.29005E-001	0.00000E+000	9	...........	1467.52
	1176	19.6167	1.23999E-001	-3.45868E-006	0.00000E+000	1.23995E-001	0.00000E+000	9	...........	1467.52
	1181	19.7	1.19010E-001	-3.59379E-006	0.00000E+000	1.18996E-001	0.00000E+000	9	...........	1467.52
	1186	19.7833	1.13983E-001	-3.73108E-006	0.00000E+000	1.13998E-001	0.00000E+000	9	...........	1467.52
	1191	19.8667	1.09006E-001	-3.85842E-006	0.00000E+000	1.09000E-001	0.00000E+000	9	...........	1467.52
	1196	19.95	1.04014E-001	-3.98946E-006	0.00000E+000	1.04002E-001	0.00000E+000	9	...........	1467.52
	1200	20.0167	1.00004E-001	-4.08761E-006	0.00000E+000	1.00003E-001	0.00000E+000	9	...........	1467.52
CURVE4	TABLE
	Pt	T	Vf	Im	Vu	Sig	Ach	IERange	Over	Temp
	#	s	V vs. Ref.	A	V	V	V	#	bits	deg C
	1201	20.0333	9.99923E-002	-3.15829E-006	0.00000E+000	1.00003E-001	0.00000E+000	9	...........	1467.52